#lambda/nm	C1
208.295	469.4
208.67	431.2
209.045	395.8
209.419	399.4
209.794	538.4
210.169	521.2
210.544	627
210.919	541.8
211.295	523.8
211.67	530.2
212.045	522.6
212.421	527.6
212.796	559.8
213.172	528.6
213.547	523.8
213.923	524.2
214.299	536.4
214.675	543.8
215.051	544.2
215.427	534.2
215.803	544.4
216.179	543
216.555	529
216.932	540.4
217.308	532.8
217.684	530.4
218.061	540.2
218.438	534.2
218.814	516.8
219.191	536.4
219.568	525.4
219.945	536.4
220.322	541.2
220.699	526.6
221.076	543.4
221.453	535.8
221.83	513.6
222.208	528.2
222.585	531.4
222.962	533.4
223.34	536.8
223.717	535
224.095	531.4
224.473	534.4
224.851	526.4
225.229	518.6
225.607	544.8
225.985	531.2
226.363	533.6
226.741	537.2
227.119	529.4
227.497	537.8
227.876	522.8
228.254	546
228.633	537.4
229.011	539.4
229.39	546.2
229.769	534.2
230.148	547.2
230.527	549
230.905	531.2
231.284	539.6
231.664	532.4
232.043	546
232.422	540.6
232.801	525.2
233.181	542.4
233.56	525.4
233.94	535.4
234.319	527
234.699	534.8
235.079	565.4
235.458	567.4
235.838	548.4
236.218	524.8
236.598	523.8
236.978	521
237.358	525.4
237.738	529.2
238.119	534.4
238.499	522
238.88	522
239.26	549.2
239.641	515.6
240.021	533.6
240.402	531.4
240.783	537.2
241.163	531.6
241.544	538.2
241.925	531.4
242.306	544.6
242.687	533
243.069	526.8
243.45	537.8
243.831	532
244.212	524.2
244.594	556.6
244.975	537.2
245.357	541.4
245.739	532
246.12	530.8
246.502	548
246.884	532.4
247.266	528.2
247.648	534.6
248.03	553
248.412	534
248.794	537.4
249.176	524
249.559	536.6
249.941	527.4
250.323	522
250.706	530
251.089	535
251.471	534.6
251.854	537.2
252.237	535
252.62	536.2
253.002	526.8
253.385	531.6
253.769	542.4
254.152	534.2
254.535	537
254.918	527
255.301	533.6
255.685	535.6
256.068	529
256.452	554.8
256.835	539
257.219	537
257.603	544.4
257.986	527.2
258.37	542
258.754	525.2
259.138	545.4
259.522	546.2
259.906	530.6
260.29	542.6
260.675	532.2
261.059	530.8
261.443	524.6
261.828	533.2
262.212	541
262.597	521.4
262.981	530.6
263.366	533
263.751	528.8
264.136	523.2
264.521	529.6
264.906	523
265.291	531
265.676	524.8
266.061	537.4
266.446	542
266.831	527.8
267.217	546
267.602	529.4
267.987	532.8
268.373	536
268.759	541.2
269.144	537.6
269.53	527.8
269.916	518.8
270.302	526.2
270.688	536.4
271.074	529.6
271.46	540.6
271.846	550
272.232	523.6
272.618	526.2
273.004	529.2
273.391	539.2
273.777	549.6
274.164	533.8
274.55	539
274.937	530.6
275.324	533.8
275.71	543.4
276.097	536.6
276.484	527
276.871	525.4
277.258	538
277.645	523
278.032	528.6
278.419	530
278.807	535.2
279.194	529.6
279.581	522
279.969	537.8
280.356	531.4
280.744	529.4
281.131	550.4
281.519	535.8
281.907	520.6
282.295	525.2
282.682	537
283.07	526.6
283.458	535.8
283.846	537.2
284.235	533.8
284.623	531
285.011	522
285.399	530.6
285.788	530.4
286.176	523.4
286.565	536.6
286.953	531.6
287.342	519.8
287.731	524
288.119	520.4
288.508	527
288.897	537.2
289.286	528.4
289.675	530.6
290.064	534.4
290.453	530.4
290.821	537
291.21	546.2
291.599	526.4
291.989	533.2
292.378	538.4
292.768	545.8
293.157	535.8
293.547	543
293.936	527.2
294.326	532
294.716	530.6
295.106	524
295.496	537.2
295.886	543.8
296.276	531
296.666	534.2
297.056	526
297.446	526.6
297.836	545.4
298.227	524.6
298.617	536.8
299.008	544.8
299.398	538.4
299.789	532
300.179	542.8
300.57	543
300.961	528.6
301.352	528.4
301.742	537
302.133	532
302.524	536.6
302.915	531.8
303.307	524.6
303.698	541.2
304.089	541.2
304.48	532
304.872	536
305.263	532.6
305.655	522.4
306.046	545
306.438	529.2
306.829	532.6
307.221	539.4
307.613	535.6
308.005	535.2
308.397	549.4
308.789	547.6
309.181	553.2
309.573	552.8
309.965	540.8
310.357	532
310.749	540.8
311.142	526
311.534	527.2
311.926	541.8
312.319	525.2
312.711	526.4
313.104	537.4
313.497	536.8
313.889	556.6
314.282	544.6
314.675	552
315.068	536.6
315.461	541.8
315.854	556.8
316.247	536.8
316.64	538.8
317.033	526
317.405	539.8
317.798	536.4
318.192	529.8
318.585	522.2
318.979	531
319.372	528
319.766	525.4
320.16	540.2
320.553	549.8
320.947	549.8
321.341	527.6
321.735	534.6
322.129	529.6
322.523	553.4
322.917	523.6
323.311	543.4
323.705	531
324.099	546.2
324.494	540.4
324.888	539.6
325.282	527.4
325.677	540.6
326.071	532.2
326.466	538.8
326.861	537.8
327.255	537.8
327.65	538
328.045	552.2
328.44	528
328.835	527.2
329.23	528.6
329.625	547.2
330.02	527.2
330.415	544.2
330.81	536.2
331.206	531.6
331.601	528.2
331.996	543.8
332.37	553.6
332.766	522.8
333.161	553.2
333.557	528.2
333.953	529.4
334.348	866
334.744	529.6
335.14	530.4
335.536	525.8
335.932	549
336.328	530.8
336.724	537.2
337.12	525
337.516	542.2
337.913	538.2
338.309	541.6
338.705	533.4
339.102	541.8
339.498	525.8
339.895	545.6
340.291	529.4
340.688	547.6
341.085	531.6
341.481	539.4
341.878	534.2
342.275	544.2
342.672	524
343.069	527.2
343.466	520
343.842	548
344.239	526.4
344.636	533.8
345.033	522.8
345.431	528.8
345.828	529.6
346.225	524.4
346.623	557.4
347.02	532.6
347.418	541
347.816	546.2
348.213	527.4
348.611	534.4
349.009	535.4
349.407	535.8
349.805	518.2
350.203	523.4
350.601	543.6
350.999	528.8
351.397	560.4
351.795	528.2
352.193	538.4
352.57	539
352.969	537.2
353.367	524.2
353.766	520.4
354.164	529
354.563	538.6
354.961	526.2
355.36	524
355.759	533.4
356.158	525
356.557	521
356.956	524.8
357.355	515.4
357.754	533
358.153	534.4
358.552	546
358.951	521
359.35	537.6
359.75	522.4
360.149	522
360.527	519
360.926	521
361.326	528.8
361.726	521.6
362.125	519.8
362.525	526.6
362.925	516.6
363.325	523
363.724	522.2
364.124	522
364.524	519.2
364.924	523.8
365.324	531.6
365.725	517.8
366.125	530.4
366.525	518.4
366.904	516.2
367.304	519.4
367.705	538
368.105	539.8
368.506	529
368.906	525.8
369.307	523
369.708	531.4
370.108	516.4
370.509	530.4
370.91	515.6
371.311	526
371.712	530.6
372.113	519.8
372.514	514.8
372.894	524.6
373.295	524
373.696	527.6
374.097	533
374.499	547.8
374.9	520
375.301	525.4
375.703	524.2
376.105	520.8
376.506	530.2
376.908	532.8
377.309	528.2
377.711	523.6
378.113	524.6
378.493	524.8
378.895	520.2
379.297	524.8
379.699	512
380.102	526.8
380.504	524.8
380.906	515
381.308	539.2
381.71	520.6
382.113	527.4
382.515	518.4
382.918	528
383.299	520.8
383.701	527.6
384.104	523.8
384.507	510.6
384.909	516.4
385.312	520.8
385.715	519.4
386.118	513.2
386.521	515.4
386.924	528.8
387.327	517.2
387.709	513.4
388.112	511.6
388.515	517.4
388.918	520.6
389.322	530.8
389.725	517.6
390.129	544.2
390.532	530
390.936	519.4
391.339	520.8
391.743	528.6
392.125	526.2
392.529	530
392.933	535.2
393.337	518.2
393.74	525.4
394.144	528.8
394.548	520.2
394.953	518
395.357	525
395.761	528.8
396.144	527.8
396.548	521.6
396.952	523.2
397.357	525.6
397.761	522.2
398.166	521.2
398.57	520.2
398.975	515
399.379	526.4
399.763	572.6
400.168	529.2
400.572	520.6
400.977	522.4
401.382	537.4
401.787	533.6
402.192	529.6
402.597	542.2
403.002	512.8
403.386	536.8
403.791	534.6
404.197	523.8
404.602	532.8
405.007	521
405.413	520.6
405.818	524
406.224	520
406.608	523
407.014	517.2
407.42	540.8
407.825	520.8
408.231	528.6
408.637	527.4
409.043	540.6
409.449	520.4
409.834	520.2
410.24	522.6
410.646	527.6
411.052	533.2
411.458	522.4
411.865	534.2
412.271	528.8
412.677	517.4
413.062	536.2
413.469	517
413.875	540.4
414.282	537
414.689	520.8
415.095	528.4
415.502	522
415.888	523.8
416.294	511.8
416.701	556.2
417.108	514
417.515	529.2
417.923	520.4
418.33	534
418.715	529.4
419.123	518.2
419.53	517.8
419.937	527.6
420.345	542.2
420.752	525.2
421.16	541.8
421.546	528
421.953	533.4
422.361	520.8
422.769	526.2
423.177	520.6
423.585	548.2
423.992	544.8
424.379	534.4
424.787	539
425.195	538.6
425.603	527
426.011	534
426.419	542.6
426.806	533.8
427.214	529.6
427.623	537.8
428.031	544.4
428.44	540.2
428.848	545.8
429.235	558.8
429.644	552.6
430.053	561
430.461	579.8
430.87	587
431.279	592.2
431.666	590.2
432.075	610.8
432.484	621.4
432.893	636.8
433.302	663.2
433.711	709.6
434.099	693.8
434.508	690.6
434.918	717.6
435.327	751.6
435.737	768.4
436.125	792.6
436.534	803
436.944	826.8
437.353	852.6
437.763	881.6
438.173	881.2
438.561	911.8
438.971	908.6
439.381	947.8
439.791	962.4
440.201	961
440.589	999.2
440.999	1026.4
441.409	1040
441.819	1043.8
442.23	1067.4
442.619	1085.2
443.029	1087.2
443.439	1098.2
443.85	1122.2
444.26	1148.4
444.649	1138.4
445.06	1148.6
445.471	1157.4
445.881	1180
446.292	1191.2
446.682	1205.8
447.092	1192.4
447.503	1264
447.914	1195
448.325	1215.8
448.715	1220
449.126	1208
449.537	1223.4
449.948	1238.2
450.338	1241.2
450.75	1243.4
451.161	1270.4
451.572	1263.2
451.984	1264.8
452.374	1278.8
452.786	1278
453.197	1279.4
453.609	1291.4
453.999	1267
454.411	1272.4
454.823	1285.4
455.235	1291.2
455.647	1288.8
456.037	1288
456.449	1275
456.862	1285.2
457.274	1283
457.665	1281.8
458.077	1307.6
458.489	1315.4
458.902	1273.4
459.293	1289.2
459.705	1295.8
460.118	1285.6
460.53	1296
460.921	1291.2
461.334	1306.2
461.747	1309
462.16	1314.4
462.551	1312.6
462.964	1297.4
463.377	1300.6
463.79	1289.8
464.182	1312.4
464.595	1307.2
465.008	1292.6
465.421	1306.4
465.813	1300.4
466.226	1309
466.64	1300.4
467.053	1343.8
467.445	1298.2
467.859	1337
468.272	1323
468.686	1318.6
469.078	1299
469.492	1286.8
469.906	1311
470.298	1293.6
470.712	1290.2
471.126	1310.4
471.54	1284.2
471.933	1296.4
472.347	1286.2
472.761	1285.6
473.175	1280
473.568	1280.8
473.982	1278
474.397	1296.4
474.79	1290.8
475.204	1283.8
475.619	1278.4
476.033	1258.8
476.426	1258.2
476.841	1257.4
477.256	1271.2
477.649	1246.2
478.064	1229.6
478.479	1232.6
478.872	1217.2
479.287	1229.4
479.702	1222.8
480.118	1217.8
480.511	1220
480.927	1211.4
481.342	1228.8
481.736	1217.8
482.151	1198.6
482.566	1209
482.96	1199.4
483.376	1211
483.792	1193.6
484.186	1182.4
484.602	1181.4
485.017	1173.8
485.412	1180.2
485.827	1177.4
486.243	1164
486.638	1172.2
487.054	1163.2
487.47	1186
487.865	1161.4
488.281	1146.2
488.697	1138.8
489.092	1147.2
489.508	1125.2
489.925	1141.4
490.32	1119.8
490.736	1121.2
491.153	1105
491.548	1123.2
491.964	1117
492.381	1093.4
492.776	1092.4
493.193	1093.8
493.61	1099.4
494.006	1092.8
494.422	1096.2
494.84	1083.8
495.235	1079.8
495.652	1075.8
496.069	1060.8
496.465	1051.8
496.883	1053.4
497.3	1065
497.696	1035.8
498.113	1046.2
498.509	1033.4
498.927	1021.6
499.344	1015.2
499.741	1011.8
500.158	1024.4
500.576	1019.4
500.973	1004.6
501.39	993.4
501.787	983.8
502.205	989.4
502.623	966.8
503.02	975.4
503.438	971.6
503.856	976.6
504.253	962.8
504.671	970.8
505.068	958.4
505.486	955
505.905	968.6
506.302	937
506.72	961
507.118	940.4
507.536	939.2
507.955	924.2
508.352	920.8
508.771	922.2
509.169	917.2
509.587	916.4
510.006	911.6
510.404	892.6
510.823	893.2
511.221	892.2
511.64	882.2
512.038	893
512.457	886.2
512.877	867.8
513.275	875.8
513.694	864.4
514.092	868.4
514.512	870.4
514.91	864.2
515.33	856.2
515.749	864.6
516.148	859
516.568	852.2
516.966	840.6
517.386	837
517.785	825.2
518.205	829.6
518.603	818.4
519.024	825.2
519.444	825
519.843	832.8
520.263	827
520.662	813
521.082	816.2
521.481	811.2
521.902	800
522.301	811
522.722	803.4
523.121	786.6
523.542	791.4
523.963	787.4
524.362	776
524.783	783
525.183	772
525.604	776
526.003	770.2
526.425	758.4
526.824	765
527.246	766.6
527.646	770
528.067	759
528.467	754.4
528.888	754
529.289	754.4
529.71	746
530.11	734
530.532	747.6
530.932	738.8
531.354	720.6
531.755	755.2
532.176	735
532.577	722.2
532.999	732.8
533.4	718.8
533.822	728.8
534.223	717.8
534.645	722.8
535.046	710.8
535.468	714
535.869	725.4
536.292	702
536.693	740.4
537.115	703.4
537.516	699
537.939	703
538.34	714.8
538.742	715
539.165	699.8
539.566	696.2
539.989	690.8
540.391	693.4
540.814	698.6
541.216	684
541.639	686
542.041	687.6
542.464	670.8
542.866	677.4
543.268	675.4
543.691	687.6
544.093	686.8
544.517	697
544.919	664.2
545.343	691
545.745	660.6
546.147	672.6
546.571	661.2
546.974	657.4
547.398	657.8
547.8	670.8
548.224	652.6
548.627	646.4
549.03	660.2
549.454	648
549.857	642.6
550.281	649.8
550.684	639.8
551.087	651.8
551.512	647
551.915	637.8
552.34	644
552.743	636.4
553.146	630
553.571	637.4
553.975	635.4
554.399	623.8
554.803	659
555.207	621.2
555.632	611.4
556.036	628.4
556.461	622.6
556.865	614.4
557.268	621.8
557.694	619.8
558.098	629.6
558.502	616.6
558.927	607.4
559.332	612.2
559.736	617.2
560.162	622.6
560.566	613.2
560.992	618.4
561.396	617
561.801	604.6
562.227	600.2
562.631	606.6
563.036	598.4
563.462	611.6
563.867	597
564.272	591
564.698	609.8
565.103	594.8
565.508	613.4
565.935	593.2
566.34	593.2
566.745	599
567.172	594.4
567.577	601.8
567.982	605.4
568.409	594.8
568.815	579.2
569.22	598.2
569.626	596.4
570.053	572.2
570.459	587.6
570.865	582.6
571.292	589.2
571.698	578
572.104	574.2
572.531	583.6
572.937	586.8
573.343	580.4
573.75	576.2
574.177	572
574.583	582.6
574.99	566.8
575.396	561.2
575.824	568.6
576.231	570.4
576.637	562.4
577.065	598.6
577.472	565
577.879	558.4
578.286	573
578.714	565.2
579.121	569
579.528	568.2
579.935	580.8
580.364	560
580.771	553
581.178	558.2
581.585	564.2
582.014	569
582.421	558.8
582.829	562.2
583.236	572
583.644	564
584.073	556
584.481	558.4
584.889	552.8
585.296	558.4
585.726	554.4
586.134	547.8
586.542	557.2
586.95	578.2
587.358	547.6
587.787	557.2
588.196	553.8
588.604	555.4
589.012	550
589.421	540.6
589.851	544
590.259	548.8
590.668	547.4
591.076	576.4
591.485	545.2
591.894	551.8
592.324	565.8
592.733	555.2
593.142	536.6
593.551	539.8
593.96	559.8
594.369	544
594.8	535.8
595.209	548.8
595.618	537
596.028	545.2
596.437	541.6
596.847	550.4
597.256	545
597.687	543.8
598.097	535.8
598.507	536.2
598.917	544.2
599.327	544.4
599.736	535.4
600.146	542
600.556	535.4
600.988	549.8
601.398	542.2
601.808	551
602.219	530
602.629	531.6
603.039	534.8
603.45	549.2
603.86	536.6
604.271	538
604.703	530.8
605.114	527
605.525	532.6
605.935	529.4
606.346	548.4
606.757	528.6
607.168	530
607.579	526.6
607.99	532
608.402	525.2
608.813	536.4
609.224	525.4
609.636	517
610.047	522.2
610.48	531
610.892	531.4
611.303	536.8
611.715	526.2
612.127	521.4
612.539	529
612.95	529
613.362	520.8
613.774	523
614.186	529.2
614.599	528
615.011	537.2
615.423	524.8
615.835	519.8
616.248	527.4
616.66	537.2
617.073	516.4
617.485	528.4
617.898	533.6
618.311	532.4
618.723	525.2
619.136	548
619.549	537.6
619.962	548.4
620.375	524.6
620.788	539.8
621.201	521.8
621.614	535.4
622.028	530.2
622.441	527.2
622.854	533.6
623.268	510.6
623.681	530.6
624.095	529.8
624.509	526.2
624.922	525.2
625.336	510.6
625.728	531
626.142	531.2
626.556	541.6
626.97	526.4
627.384	515.2
627.799	519.6
628.213	534
628.627	528.4
629.041	523.4
629.456	513.8
629.87	518.6
630.285	524.2
630.699	530.4
631.093	520
631.507	523.6
631.922	516
632.337	531
632.752	515.8
633.167	517.4
633.582	522.8
633.997	522.2
634.412	512
634.806	526
635.221	518
635.637	526.6
636.052	514.6
636.468	516
636.883	538
637.299	511.2
637.715	511.2
638.109	517.8
638.525	507
638.941	534
639.357	520.4
639.773	530.2
640.189	511.8
640.584	518.4
641	518.8
641.416	504.4
641.832	518.4
642.249	517.8
642.665	516.2
643.06	523.4
643.477	524.6
643.894	506.4
644.31	515.8
644.727	515.8
645.123	522
645.54	508.2
645.957	520
646.374	519
646.77	515.2
647.187	536.4
647.604	520
648.021	505.6
648.439	505.2
648.835	516.8
649.252	510.4
649.67	509
650.088	513.2
650.484	522.4
650.902	517.2
651.32	511.6
651.738	503.2
652.134	507.8
652.552	521.4
652.971	511.4
653.389	509.2
653.786	520.6
654.204	517.2
654.622	497.8
655.019	510
655.438	513.4
655.857	511.4
656.275	512
656.673	511
657.091	516.6
657.51	505.4
657.908	516.6
658.327	517
658.746	500.6
659.144	515
659.563	516.4
659.982	516.6
660.38	505.4
660.8	507.8
661.219	515.2
661.617	508.6
662.037	508.4
662.457	519.2
662.855	497
663.275	531.8
663.695	504.6
664.094	517.6
664.514	515.2
664.934	500.8
665.333	515.8
665.753	500.4
666.152	508.8
666.572	504.4
666.993	515.2
667.392	504.6
667.812	501.4
668.212	505.2
668.632	515.6
669.053	501.6
669.453	513.4
669.874	500.8
670.273	500.2
670.694	501.4
671.116	511.8
671.515	508.8
671.937	505.4
672.337	499
672.758	506.4
673.158	513.4
673.58	502.4
673.98	499.8
674.402	515.4
674.824	499.4
675.224	504.2
675.646	498.8
676.047	503.6
676.469	506.8
676.869	515
677.292	512
677.693	486.6
678.115	501.4
678.516	512.8
678.939	512.4
679.34	506.2
679.762	510.2
680.164	508
680.586	504.4
680.988	510.6
681.411	532
681.812	507.2
682.236	499
682.637	502.8
683.061	493.6
683.462	503.4
683.864	508.6
684.288	516.6
684.69	496.8
685.114	513.6
685.516	514.6
685.94	503
686.342	514.6
686.766	502.2
687.168	501.4
687.571	520.6
687.995	506.6
688.398	499.4
688.822	506
689.225	512
689.628	520.8
690.052	504.6
690.456	506.4
690.88	510.4
691.284	500.4
691.687	510.4
692.112	497.2
692.515	494.8
692.919	509.4
693.344	499
693.747	502.8
694.173	497
694.577	513.8
694.98	500
695.406	498
695.81	507
696.214	500.6
696.64	508
697.044	504.6
697.448	510.8
697.874	501.2
698.279	500.6
698.684	496
699.11	504.2
699.514	502.4
699.919	501.2
700.324	498.2
700.75	504.6
701.156	498.2
701.561	507
701.987	507.2
702.393	519.4
702.798	511.6
703.203	496
703.63	498.8
704.036	497.8
704.442	500.8
704.847	494
705.274	503
705.68	503.2
706.086	503.6
706.492	491.8
706.92	498
707.326	512.8
707.732	509.2
708.139	494.4
708.545	493.4
708.973	495.4
709.38	499.8
709.786	493.4
710.193	510
710.6	497.2
711.028	498.6
711.435	503.2
711.842	503.6
712.249	495.6
712.656	499.8
713.064	507.2
713.492	497.2
713.9	496.8
714.307	506
714.715	497.4
715.123	502.6
715.53	499.8
715.938	511
716.367	506.4
716.775	502.2
717.184	494.6
717.592	497.4
718	507.2
718.408	534
718.816	534.6
719.225	505.2
719.633	499.4
720.042	487.6
720.472	503
720.881	524.2
721.29	513.2
721.699	491.4
722.108	501
722.517	500.2
722.926	499.8
723.335	505.6
723.744	497
724.154	497.2
724.563	502.8
724.973	510.6
725.382	505.6
725.792	496.2
726.202	496
726.612	513.4
727.022	501.8
727.432	488.4
779.813	495.4
780.223	537.4
780.634	505
781.044	489.8
781.454	497.6
781.865	499.8
782.276	487
782.686	504.4
783.097	502
783.508	491.8
783.919	501.6
784.33	503
784.741	516.8
785.152	496.4
785.563	484
785.974	492.2
786.386	501.4
786.776	497.2
787.188	510.4
787.599	497.6
788.011	511
788.423	507.8
788.835	495.8
789.247	500.4
789.659	495.4
790.071	498.4
790.483	541
790.874	497.2
791.286	500.4
791.699	497.6
792.111	493.2
792.524	502.4
792.937	490
793.349	495.6
793.741	497.4
794.154	500.2
794.567	507.8
794.98	500.8
795.393	493.8
795.785	514.6
796.198	493.4
796.612	503.4
797.026	498
797.439	493
797.831	496
798.245	490.6
798.659	489.8
799.073	483.2
799.487	488.8
799.88	492.6
800.294	491.6
800.708	497.6
801.123	501.4
801.516	506
801.93	485.2
802.345	484.2
802.76	494.2
803.153	510
803.568	501
803.983	497.4
804.377	494.2
804.792	489.2
805.207	486.8
805.601	493
806.016	519
806.432	492.8
806.826	521.8
807.242	507
807.658	503
808.052	493.4
808.468	495.2
808.884	494.6
809.279	497
809.695	501.4
810.111	517
810.506	502.2
810.922	508.4
811.339	493.6
811.734	495
812.151	498.2
812.546	491.6
812.963	495
813.38	500.8
813.776	497.6
814.193	515.6
814.589	490.6
815.006	502.8
815.402	487.8
815.82	495.4
816.237	490.6
816.633	496.4
817.051	490.2
817.448	489.8
817.866	485.6
818.262	512.6
818.68	492
819.077	494.8
819.495	497
819.892	534.4
820.311	485.8
820.708	498.4
821.127	489.8
821.524	504
821.943	497.8
822.34	508
822.759	494
823.157	497.2
823.576	502.6
823.974	505.6
824.393	558.2
824.791	491
825.189	497.8
825.609	497.6
826.007	494.8
826.427	487.4
826.826	492.4
827.246	502.2
827.644	482
828.043	504.4
828.463	492.6
828.862	500.4
829.261	505.6
829.682	489.8
830.081	509
830.502	492.2
830.901	505.6
831.301	493.8
831.722	493.4
832.121	498
832.521	490
832.943	487.8
833.342	500.4
833.742	496.4
834.164	498.6
834.564	486.8
834.965	487.2
835.386	499.8
835.787	493.4
836.188	498.2
836.588	497.4
837.01	502.6
837.411	487
837.812	505.4
838.213	497.8
838.636	501
839.037	550.8
839.438	498.8
839.84	499.8
840.263	505.8
840.664	500.2
841.066	488.2
841.468	499
841.891	499.2
842.293	505
842.695	494.2
843.098	505.4
843.5	492.8
843.902	504.6
844.326	496.4
844.729	500.4
845.131	504
845.534	495.2
845.937	501.4
846.34	512.2
846.764	497.8
847.167	496
847.571	497.6
847.974	497.4
848.377	489.6
848.781	538.8
849.184	512
849.588	493.2
849.992	489
850.396	500.4
850.821	516.6
851.225	497.6
851.63	490.4
852.034	510.2
852.438	493.6
852.843	517.6
853.247	489
853.652	491.6
854.057	509
854.462	492.2
854.867	497.4
855.272	514.6
855.677	493
856.082	487.8
856.487	490.4
856.893	494.8
857.298	492.4
857.704	487.6
858.11	497
858.516	499.4
858.922	493.2
859.328	498.8
859.734	497
860.14	506
860.525	493.4
860.931	495.4
861.338	490.4
861.745	495.4
862.151	502.2
862.558	493.8
862.965	497.2
863.372	492.6
863.779	490.2
864.186	512.2
864.572	497.8
864.98	508.6
865.387	525.4
865.795	485.6
866.203	500.2
866.61	485.8
867.018	504
867.405	498.4
867.813	492.6
868.221	493.6
868.63	490.8
869.038	501
869.425	525
869.834	495.2
870.243	494.2
870.652	484
871.039	480.4
871.448	491.6
871.857	498.8
872.266	486.2
872.654	489.6
873.064	489
873.473	496.2
873.883	482.8
874.271	487.4
874.681	509
875.091	485.2
875.48	501
875.89	512.8
876.3	489.2
876.689	484
877.1	488.8
877.51	501.4
877.9	511.4
878.31	489.8
878.721	521.2
879.111	502.4
879.522	493
879.933	492.8
880.323	483.2
880.734	491.6
881.125	497.2
881.536	481.6
881.948	490.6
882.338	496.2
882.75	499
883.141	494
883.553	495.4
883.944	513
884.356	498.6
884.769	492.6
885.16	495.6
885.573	500
885.964	489.4
886.377	505.4
886.768	484
887.181	495
887.573	487.6
887.987	494.6
888.378	495.8
888.792	499.4
889.184	539.4
889.598	487
889.99	499.4
890.383	490.8
890.797	481.6
891.19	500.6
891.604	490.4
891.997	487.6
892.411	482.8
892.805	486
893.198	482.6
893.613	488
894.006	491.4
894.421	483.8
894.815	488
895.209	490.4
895.624	518.8
896.018	500.8
896.412	478.8
896.828	484
897.222	492.6
897.617	486.6
898.033	507
898.427	495
898.822	487.4
899.239	482.4
899.634	490
900.029	497.8
900.424	482.4
900.841	480.4
901.236	499.4
901.632	499.2
902.027	541.2
902.445	498.4
902.841	496.4
903.237	490.6
903.633	502.6
904.05	501.6
904.447	486.4
904.843	495.8
905.24	495.2
905.636	472.4
906.033	493.6
906.451	506.2
906.848	497.4
907.246	498.4
907.643	494.2
908.04	496.8
908.438	503.2
908.835	494
909.254	491.4
909.652	500.6
910.05	494.2
910.448	482.4
910.846	488.2
911.244	479
911.643	481.4
912.041	488.4
912.44	506.2
912.839	491.6
913.237	488.8
913.636	482
914.035	492.2
914.434	484.6
914.834	499.8
915.233	492
915.633	484.2
916.032	485.6
916.432	491.2
916.832	502.6
917.232	486.6
917.632	479.2
918.032	490.6
918.432	488
918.833	493
919.233	490.2
919.634	480.6
920.035	497.2
920.436	488.6
920.837	498.4
921.238	493.6
921.639	490.6
922.019	491.4
922.42	492.4
922.822	493.2
923.224	490.4
923.625	490.4
924.027	488.8
924.429	513.2
924.81	496
925.212	499
925.615	492.6
926.017	487.6
926.42	496.6
926.801	496.4
927.204	494.8
927.607	501.2
928.01	498.8
928.413	499
928.795	484.2
929.199	490.8
929.602	489.6
930.006	484.4
930.388	488.8
930.792	495.4
931.196	496.8
931.579	525
931.983	483
932.388	526.8
932.771	489.6
933.176	482.2
933.58	494.4
933.964	507.4
934.369	481.4
934.774	499.4
935.158	487.8
935.563	492
935.947	494
936.353	495.4
936.759	492.8
937.143	487.8
937.549	492.2
937.934	495.8
938.34	508
938.746	487
939.131	492.2
939.538	482.6
939.923	490.6
940.33	493.2
940.716	496.6
941.123	496.6
941.508	501
941.916	506.4
942.302	495.6
942.709	485.8
943.096	491.6
943.503	497.2
943.89	495.8
944.298	483.6
944.685	509.2
945.072	490.8
945.48	508.8
945.867	487.2
946.276	484.4
946.663	510.6
947.051	503.8
947.46	504.6
947.848	490
948.257	488
948.645	489.6
949.033	487.4
949.443	479
949.831	521.8
950.22	482.8
950.63	493.2
951.018	508.4
951.407	491.2
951.796	490.8
952.207	488.8
952.596	493.2
952.985	482
953.375	526
953.786	491.2
954.176	482.2
954.566	496
954.956	482.2
955.367	486.4
955.758	506.6
956.148	487
956.539	495
956.929	486.2
957.341	478
957.732	486.6
958.123	492.2
958.515	475.8
958.906	487.2
959.297	490.2
959.689	487.6
960.102	490.6
960.494	489.6
960.886	490.2
961.278	486.8
961.67	506.6
962.062	520.4
962.455	488.4
962.847	489
963.24	485.2
963.633	487.2
964.026	490.8
964.419	479.6
964.812	493.2
965.206	493.2
965.599	490.2
965.993	493.2
966.386	491.4
966.78	498.2
967.174	497.6
967.569	487.6
967.963	479
968.357	490.4
968.752	484.6
969.146	485
969.541	481.6
969.936	488.8
970.331	491
970.705	489
971.1	489.8
971.496	500.8
971.892	480.4
972.287	484.8
972.683	494.6
973.079	487.4
973.454	498.6
973.85	489.6
974.247	494.6
974.643	506.2
975.04	492.8
975.415	497
975.812	480
976.209	491.2
976.607	481
976.982	501
977.38	506.2
977.778	488.8
978.175	486.2
978.552	489.6
978.95	498.4
979.348	489.8
979.725	529.4
980.123	488.4
980.522	487
980.899	491
981.298	485.6
981.697	487.2
982.075	477.4
982.474	490.6
982.852	486.2
983.251	494.2
983.651	487.8
984.029	493.4
984.429	485.2
984.808	485.4
985.208	484.4
985.609	481.4
985.987	479.6
986.388	480.2
986.768	492.2
987.168	474.2
987.548	495.6
987.949	491.6
988.329	492
988.731	473.8
989.111	482.4
989.491	479.4
989.893	486.2
990.273	486.2
990.676	481.8
991.057	481.4
991.459	489.4
991.84	488.6
992.221	472
992.624	501.2
993.006	493.6
993.388	496.6
993.791	488
994.173	497
994.576	513
994.959	484.6
995.341	484.6
995.724	491
996.128	488.4
996.511	487.4
996.894	488.2
997.298	483.8
997.681	495.4
998.065	488.2
998.448	491.4
998.854	490
999.237	482.4
999.621	500
1000.01	504
1000.39	489.6
1000.8	481
1001.18	493.2
1001.56	493.4
1001.95	489.4
1002.33	491.6
1002.72	482.8
1003.13	479
1003.51	484.4
1003.9	480.2
1004.28	498.2
1004.67	474.4
1005.06	490.6
1005.44	512.2
1005.83	481.2
1006.21	486.6
1006.6	482.2
1006.99	492.8
1007.37	498
1007.76	488.2
1060.12	481.4
1060.51	475
1060.89	492.2
1061.28	496.2
1061.67	493
1062.06	495
1062.45	490.6
1062.83	483.6
1063.22	491.8
1063.61	516.4
1064	490.8
1064.39	486.4
1064.78	484.8
1065.14	496.6
1065.53	490.2
1065.92	481.4
1066.31	486.8
1066.7	491
1067.09	496.6
1067.46	500
1067.85	487.2
1068.24	489.2
1068.63	499.4
1069.02	481
1069.39	484.8
1069.78	483.4
1070.17	484.4
1070.57	485.8
1070.93	493.4
1071.33	493.6
1071.72	486.2
1072.11	481.4
1072.48	484.2
1072.87	482
1073.26	498.4
1073.64	491.6
1074.03	480.6
1074.4	488.8
1074.79	489.8
1075.19	480.8
1075.56	485.6
1075.95	495.4
1076.34	492
1076.72	488.2
1077.11	486
1077.48	491.4
1077.88	490.2
1078.25	488.8
1078.64	497.4
1079.02	490
1079.41	492.6
1079.78	487.4
1080.18	485.2
1080.55	536.2
1080.95	478.2
1081.32	487
1081.72	491.6
1082.09	488.8
1082.49	487.6
1082.86	489
1083.24	482
1083.63	479.8
1084.01	488.2
1084.38	500.6
1084.78	488
1085.16	491
1085.55	490.2
1085.93	500.2
1086.31	479.4
1086.7	516.4
1087.08	481.4
1087.46	494
1087.83	479.6
1088.23	498.6
1088.61	488.4
1088.99	492.4
1089.36	487.8
1089.76	481.8
1090.14	479.6
1090.52	482.4
1090.9	485.8
1091.27	487.8
1091.67	510
1092.05	492.8
1092.43	483.4
1092.81	492.2
1093.19	488.8
1093.57	481
1093.95	480.4
1094.35	494.8
1094.73	490.2
1095.11	477.2
1095.49	486.2
1095.87	487
1096.25	498.2
1096.63	493.4
1097.01	488.6
1097.39	491.8
1097.77	484
1098.15	482
1098.53	479.4
1098.91	480.4
1099.29	484.2
1099.68	497.4
1100.06	488.6
1100.44	485.2
1100.82	492.4
1101.18	493.2
1101.56	482.2
1101.95	489.2
1102.33	491.8
1102.71	486
1103.1	480.2
1103.48	481
1103.86	482
1104.22	489.4
1104.61	487.8
1104.99	490.4
1105.38	479.4
1105.76	482.4
1106.12	491.2
1106.51	511.4
1106.89	491.4
1107.26	485.8
1107.64	489.6
1108.03	484.4
1108.41	486
1108.78	482.6
1109.16	480.6
1109.55	488
1109.91	478.6
1110.3	474.8
1110.69	494.8
1111.05	482
1111.44	485
1111.8	477.6
1112.19	494.2
1112.58	490.2
1112.94	482
1113.33	475.2
1113.7	484.6
1114.09	478.8
1114.45	484
1114.84	486.2
1115.21	496.2
1115.6	479.6
1115.96	497.8
1116.35	486.8
1116.72	484.4
1117.11	498.2
1117.48	481.2
1117.85	480
1118.24	496.8
1118.6	489.4
1118.99	475.6
1119.36	487.6
1119.73	492.2
1120.12	482.6
1120.49	481.4
1120.86	495
1121.25	484
1121.62	481.4
1121.99	485.2
1122.38	488.8
1122.76	486
1123.13	487.8
1123.5	480.6
1123.89	498.8
1124.26	476.6
1124.63	482.2
1125	480
1125.4	474.8
1125.77	483.6
1126.14	473.6
1126.51	480.2
1126.88	489.6
1127.26	485.4
1127.63	482.4
1128.02	486.4
1128.4	478.6
1128.77	475.6
1129.14	486.4
1129.52	487.2
1129.89	487.6
1130.26	481.8
1130.64	471.8
1131.01	478.4
