#lambda/nm	C1
208.295	464.2
208.67	432
209.045	389.8
209.419	401.8
209.794	539.4
210.169	526.6
210.544	618.4
210.919	539.6
211.295	527.8
211.67	539.2
212.045	534.4
212.421	526.8
212.796	558.6
213.172	526.6
213.547	534.8
213.923	530.2
214.299	527
214.675	538.4
215.051	539.6
215.427	541.6
215.803	550.4
216.179	538.6
216.555	527.2
216.932	537.4
217.308	527.2
217.684	532.2
218.061	536
218.438	532.8
218.814	526.2
219.191	541.2
219.568	534
219.945	529.4
220.322	538.6
220.699	530.8
221.076	541.2
221.453	532.2
221.83	527.4
222.208	527
222.585	526
222.962	531.2
223.34	529.4
223.717	529.4
224.095	523
224.473	527.4
224.851	517.2
225.229	524.6
225.607	544.2
225.985	527.2
226.363	530.8
226.741	538.4
227.119	529
227.497	536.6
227.876	523.4
228.254	542
228.633	530.2
229.011	533.2
229.39	527.4
229.769	534.4
230.148	535.2
230.527	540.8
230.905	533.6
231.284	534.8
231.664	529.2
232.043	542.4
232.422	534.2
232.801	535.2
233.181	530.8
233.56	531
233.94	529
234.319	518.2
234.699	526.6
235.079	569.6
235.458	567
235.838	551.2
236.218	523.2
236.598	517.6
236.978	528.4
237.358	523.4
237.738	530.8
238.119	540.8
238.499	523.6
238.88	534.4
239.26	545.6
239.641	525.8
240.021	527.4
240.402	534.6
240.783	532.8
241.163	531.4
241.544	532.8
241.925	536.8
242.306	553
242.687	529.4
243.069	537.8
243.45	535.8
243.831	533.2
244.212	528
244.594	560.8
244.975	547
245.357	534.2
245.739	528.6
246.12	536.8
246.502	543.8
246.884	522.4
247.266	533.6
247.648	535
248.03	549
248.412	524.8
248.794	530.6
249.176	522.4
249.559	538
249.941	524.4
250.323	523
250.706	521.2
251.089	523
251.471	535.6
251.854	529.8
252.237	536.6
252.62	543.6
253.002	527
253.385	531.6
253.769	540.2
254.152	537.6
254.535	533
254.918	530.4
255.301	529
255.685	533.4
256.068	527
256.452	556
256.835	540
257.219	545.8
257.603	552.4
257.986	525.8
258.37	533.6
258.754	525.8
259.138	537.2
259.522	545
259.906	526.2
260.29	536.6
260.675	527.6
261.059	527
261.443	526.6
261.828	544.8
262.212	538.4
262.597	529.6
262.981	527
263.366	537.6
263.751	534.8
264.136	532.6
264.521	537.4
264.906	534
265.291	539.6
265.676	528.6
266.061	537
266.446	556
266.831	527.4
267.217	550.2
267.602	534.4
267.987	539.8
268.373	532
268.759	547.8
269.144	542.8
269.53	534.8
269.916	529.6
270.302	530
270.688	538
271.074	531.4
271.46	539.8
271.846	560.2
272.232	528.6
272.618	528
273.004	536
273.391	542.4
273.777	539.2
274.164	527.6
274.55	538.2
274.937	538.6
275.324	531.4
275.71	533
276.097	533.2
276.484	526.2
276.871	525.8
277.258	536.6
277.645	524.8
278.032	531
278.419	527
278.807	532.2
279.194	525.2
279.581	529
279.969	536.6
280.356	525.6
280.744	529.8
281.131	553.2
281.519	544
281.907	525.6
282.295	536
282.682	542
283.07	534
283.458	532.2
283.846	535.6
284.235	540
284.623	545
285.011	520
285.399	533.4
285.788	525.4
286.176	519
286.565	530.8
286.953	530.4
287.342	528.8
287.731	518.6
288.119	523
288.508	519
288.897	523.2
289.286	519
289.675	527.4
290.064	538.4
290.453	527.8
290.821	524
291.21	551
291.599	529.4
291.989	529.4
292.378	533.8
292.768	539
293.157	542.2
293.547	545
293.936	531.8
294.326	534
294.716	534.8
295.106	530
295.496	542.2
295.886	540.8
296.276	523.2
296.666	526
297.056	530
297.446	523
297.836	547.4
298.227	522
298.617	532.2
299.008	544
299.398	526.2
299.789	524
300.179	536.4
300.57	549.2
300.961	525.8
301.352	527
301.742	539.8
302.133	530
302.524	532.8
302.915	533.8
303.307	527.2
303.698	536.8
304.089	531.6
304.48	533.2
304.872	531
305.263	540.4
305.655	532.2
306.046	545.8
306.438	538.4
306.829	530.6
307.221	546.6
307.613	539.4
308.005	538.2
308.397	543.6
308.789	549.4
309.181	551.8
309.573	549.6
309.965	539.4
310.357	527.4
310.749	536.4
311.142	520.4
311.534	529.4
311.926	541.6
312.319	532
312.711	526.2
313.104	535.6
313.497	533.4
313.889	567.6
314.282	550.4
314.675	555.6
315.068	537.2
315.461	541.6
315.854	558.6
316.247	538.6
316.64	527.8
317.033	540
317.405	543.2
317.798	534
318.192	539.6
318.585	527.2
318.979	532.2
319.372	528.6
319.766	525.8
320.16	541.6
320.553	543.4
320.947	550.6
321.341	528.4
321.735	533.6
322.129	521.2
322.523	546.4
322.917	528.8
323.311	540.4
323.705	530.4
324.099	536.6
324.494	549.4
324.888	543
325.282	531.4
325.677	544.2
326.071	543
326.466	544.8
326.861	535.6
327.255	542.6
327.65	533.8
328.045	552.4
328.44	542.2
328.835	528.4
329.23	525.2
329.625	550.4
330.02	531.6
330.415	549.8
330.81	538.2
331.206	543.6
331.601	533.6
331.996	540.6
332.37	549.8
332.766	526.2
333.161	558.6
333.557	521.2
333.953	538
334.348	755.4
334.744	530.2
335.14	524.2
335.536	523.6
335.932	541.6
336.328	530
336.724	546
337.12	535.6
337.516	537.2
337.913	535.4
338.309	543.8
338.705	527.6
339.102	535.2
339.498	526.4
339.895	539.2
340.291	534.8
340.688	535.6
341.085	524.2
341.481	525.2
341.878	535.2
342.275	550.8
342.672	528.8
343.069	532.8
343.466	519.6
343.842	544.6
344.239	533.6
344.636	532.4
345.033	526.4
345.431	521.2
345.828	531
346.225	523
346.623	558.6
347.02	530
347.418	535.8
347.816	541.6
348.213	519.6
348.611	534.8
349.009	524.2
349.407	545
349.805	523.8
350.203	519
350.601	535.8
350.999	525.8
351.397	575.2
351.795	533.2
352.193	545.2
352.57	536.8
352.969	547.8
353.367	521.2
353.766	518.2
354.164	519.2
354.563	540.2
354.961	531
355.36	530.2
355.759	525
356.158	513.8
356.557	525.8
356.956	527.8
357.355	521.6
357.754	529.2
358.153	530
358.552	550.2
358.951	527.4
359.35	546.4
359.75	531.4
360.149	525
360.527	517.8
360.926	517.8
361.326	525.8
361.726	528.4
362.125	522.4
362.525	531.2
362.925	527
363.325	522
363.724	522.2
364.124	525.8
364.524	522.6
364.924	526.8
365.324	538
365.725	513.4
366.125	533.2
366.525	532.6
366.904	523
367.304	517.4
367.705	536.6
368.105	539
368.506	532.2
368.906	532
369.307	525.2
369.708	528
370.108	518.6
370.509	524.6
370.91	516
371.311	527
371.712	523.4
372.113	519.6
372.514	511.4
372.894	528.6
373.295	523
373.696	528.6
374.097	528.8
374.499	552.8
374.9	522.6
375.301	521.6
375.703	532.2
376.105	514.8
376.506	519.6
376.908	527.6
377.309	521
377.711	525.6
378.113	520.8
378.493	522.8
378.895	521
379.297	527.2
379.699	513.6
380.102	519.4
380.504	528.6
380.906	515.4
381.308	548
381.71	529
382.113	528.6
382.515	521.8
382.918	525.6
383.299	520.6
383.701	527.4
384.104	519.8
384.507	509.4
384.909	516.8
385.312	515
385.715	513.2
386.118	520.4
386.521	513.4
386.924	529.8
387.327	523.4
387.709	510.4
388.112	510.4
388.515	516.2
388.918	522.4
389.322	525.4
389.725	523.8
390.129	539.2
390.532	531.2
390.936	517.2
391.339	515
391.743	529.2
392.125	518.6
392.529	529.8
392.933	540.4
393.337	520.6
393.74	520.8
394.144	518.8
394.548	514
394.953	529
395.357	533.6
395.761	524
396.144	530.6
396.548	523.6
396.952	519.2
397.357	524.4
397.761	520.2
398.166	523.4
398.57	523
398.975	515.8
399.379	524.6
399.763	573
400.168	528.2
400.572	522
400.977	518
401.382	535
401.787	532
402.192	535.4
402.597	532.6
403.002	512.2
403.386	529.8
403.791	540.4
404.197	528
404.602	526.4
405.007	526.8
405.413	520.8
405.818	525.8
406.224	525.8
406.608	518
407.014	521.4
407.42	536
407.825	528.2
408.231	539.2
408.637	533.6
409.043	542.4
409.449	522
409.834	519.2
410.24	525.2
410.646	528
411.052	531
411.458	523.6
411.865	532.4
412.271	535
412.677	524.2
413.062	521.6
413.469	523.4
413.875	545.8
414.282	532.8
414.689	526.2
415.095	531.2
415.502	517.8
415.888	519
416.294	516.2
416.701	558.2
417.108	521.2
417.515	522.8
417.923	522.6
418.33	538.4
418.715	530.4
419.123	516.6
419.53	517.6
419.937	525.2
420.345	536.8
420.752	515.6
421.16	541.2
421.546	529.2
421.953	533.4
422.361	515.8
422.769	522.8
423.177	514.4
423.585	544.8
423.992	542.2
424.379	529.6
424.787	528.4
425.195	544.2
425.603	525
426.011	541.4
426.419	536.8
426.806	528.2
427.214	532.2
427.623	534
428.031	546.4
428.44	530.8
428.848	543
429.235	553.6
429.644	542.6
430.053	543.4
430.461	558.4
430.87	569.8
431.279	566.4
431.666	560.8
432.075	571.2
432.484	577
432.893	573.2
433.302	596.2
433.711	634.8
434.099	613.6
434.508	620.4
434.918	634.2
435.327	647.4
435.737	654.4
436.125	652.8
436.534	683.4
436.944	697.2
437.353	715.6
437.763	735.4
438.173	722.2
438.561	733.4
438.971	737
439.381	766.8
439.791	768.6
440.201	755.8
440.589	789.8
440.999	803.2
441.409	802
441.819	808.6
442.23	824.4
442.619	834.2
443.029	835.2
443.439	829.2
443.85	856.4
444.26	868.2
444.649	872.2
445.06	872.4
445.471	871
445.881	886.2
446.292	903.8
446.682	914
447.092	886.8
447.503	944.4
447.914	892.2
448.325	900.2
448.715	901.8
449.126	903
449.537	920.2
449.948	914
450.338	928.4
450.75	929.6
451.161	933.2
451.572	937.2
451.984	913
452.374	928.2
452.786	933.8
453.197	937.6
453.609	944.2
453.999	929.2
454.411	935.6
454.823	959.4
455.235	948.6
455.647	940.4
456.037	951.4
456.449	943.2
456.862	940.8
457.274	947.2
457.665	951.8
458.077	944.6
458.489	968.8
458.902	936.6
459.293	949.4
459.705	940.2
460.118	942.4
460.53	942.2
460.921	948
461.334	949.6
461.747	953.8
462.16	955.2
462.551	970
462.964	946.4
463.377	935.8
463.79	947.8
464.182	961.8
464.595	940
465.008	952
465.421	940.6
465.813	954.4
466.226	959.8
466.64	961.8
467.053	990.8
467.445	956.6
467.859	967.2
468.272	959.2
468.686	976.8
469.078	941.4
469.492	945.2
469.906	947.2
470.298	960.2
470.712	930
471.126	965
471.54	928
471.933	926.8
472.347	936.2
472.761	932.8
473.175	920.2
473.568	925.6
473.982	918.6
474.397	933.4
474.79	927.4
475.204	925.6
475.619	931.4
476.033	931.6
476.426	925.8
476.841	906.8
477.256	928.6
477.649	906.6
478.064	907.4
478.479	908.8
478.872	899.6
479.287	897.6
479.702	899.4
480.118	901
480.511	903.4
480.927	902.2
481.342	899
481.736	895.6
482.151	882.4
482.566	886.2
482.96	887.2
483.376	888.6
483.792	874.4
484.186	885.8
484.602	889
485.017	884
485.412	870.2
485.827	878.4
486.243	868.6
486.638	881
487.054	880.8
487.47	869.8
487.865	864
488.281	855.2
488.697	858.8
489.092	852
489.508	856
489.925	858.6
490.32	844.4
490.736	842.8
491.153	851.6
491.548	850
491.964	846
492.381	828
492.776	839.6
493.193	832
493.61	835.4
494.006	833.2
494.422	832.2
494.84	820.4
495.235	832.8
495.652	811.6
496.069	806.2
496.465	806.6
496.883	808
497.3	815.4
497.696	803.6
498.113	813.2
498.509	790.8
498.927	789.8
499.344	795
499.741	780.6
500.158	793.8
500.576	801.2
500.973	793.6
501.39	776.8
501.787	767.6
502.205	780.8
502.623	759.8
503.02	769.6
503.438	762.4
503.856	766.2
504.253	772
504.671	758.8
505.068	757.8
505.486	761.8
505.905	776.2
506.302	756.6
506.72	760.8
507.118	748.4
507.536	737.8
507.955	739.4
508.352	736.6
508.771	738.4
509.169	738.8
509.587	731.2
510.006	735
510.404	715.4
510.823	724.8
511.221	717
511.64	721.8
512.038	727.4
512.457	707
512.877	717.2
513.275	700.2
513.694	712.8
514.092	704.4
514.512	714.6
514.91	699
515.33	689.8
515.749	700.6
516.148	702.8
516.568	698.2
516.966	691
517.386	678.6
517.785	692
518.205	681.8
518.603	674.2
519.024	683.4
519.444	681.2
519.843	690.2
520.263	689
520.662	678.6
521.082	676
521.481	672.4
521.902	674
522.301	673.6
522.722	681.6
523.121	671.4
523.542	662.8
523.963	667.4
524.362	671.4
524.783	663.2
525.183	658.8
525.604	669
526.003	655
526.425	649
526.824	647.4
527.246	655.6
527.646	666.8
528.067	653
528.467	652
528.888	650.6
529.289	648.2
529.71	642
530.11	637.4
530.532	633.8
530.932	629.4
531.354	627
531.755	666
532.176	637.8
532.577	633.2
532.999	639.8
533.4	629.2
533.822	641.6
534.223	622.8
534.645	627.8
535.046	623.4
535.468	629.6
535.869	632.6
536.292	623.6
536.693	642.8
537.115	610.8
537.516	616.2
537.939	616.4
538.34	627.8
538.742	637.2
539.165	602.8
539.566	617.8
539.989	616.4
540.391	612.4
540.814	598
541.216	618
541.639	605.6
542.041	620.8
542.464	598.4
542.866	601.2
543.268	599.8
543.691	604.4
544.093	600.4
544.517	610
544.919	589.6
545.343	616
545.745	594.4
546.147	602
546.571	598.4
546.974	582.2
547.398	589
547.8	604.4
548.224	588
548.627	582.2
549.03	598.2
549.454	587.6
549.857	578.6
550.281	585.2
550.684	580.4
551.087	594.6
551.512	592.2
551.915	581.6
552.34	581.6
552.743	573.8
553.146	584.8
553.571	584.4
553.975	590.4
554.399	568.6
554.803	617
555.207	573
555.632	564.6
556.036	577.6
556.461	578.4
556.865	571.8
557.268	568.2
557.694	563.8
558.098	584
558.502	579
558.927	565.2
559.332	564.6
559.736	572.4
560.162	574.4
560.566	568.2
560.992	569
561.396	575.8
561.801	563.8
562.227	561.4
562.631	562.8
563.036	567.8
563.462	574
563.867	568.2
564.272	554.6
564.698	562.8
565.103	553.4
565.508	576.8
565.935	561
566.34	551.8
566.745	571.8
567.172	553.4
567.577	574
567.982	564
568.409	557.2
568.815	546
569.22	557.4
569.626	555.8
570.053	551
570.459	549.8
570.865	556.8
571.292	557
571.698	549.2
572.104	542
572.531	549.4
572.937	556.2
573.343	547.2
573.75	541.6
574.177	550.4
574.583	550.4
574.99	545.2
575.396	553.4
575.824	542.2
576.231	549.8
576.637	543.2
577.065	559.6
577.472	548.8
577.879	541.4
578.286	567
578.714	527.4
579.121	538.2
579.528	546
579.935	550.4
580.364	537.8
580.771	530.8
581.178	540.8
581.585	539.4
582.014	545.4
582.421	536.2
582.829	532
583.236	544.6
583.644	527.4
584.073	533
584.481	547.2
584.889	533.6
585.296	535
585.726	539.8
586.134	523
586.542	528.6
586.95	550
587.358	530.6
587.787	532.4
588.196	517.8
588.604	530.6
589.012	534.4
589.421	531.8
589.851	531.2
590.259	535.4
590.668	534.6
591.076	559.8
591.485	523.8
591.894	538.6
592.324	536.4
592.733	545
593.142	523
593.551	532.2
593.96	531.4
594.369	517.6
594.8	519
595.209	529.6
595.618	519
596.028	518
596.437	519.8
596.847	524.6
597.256	531.2
597.687	536
598.097	530.4
598.507	519.8
598.917	526.8
599.327	530.4
599.736	528.4
600.146	538.2
600.556	527.6
600.988	533
601.398	524.8
601.808	525.8
602.219	513.4
602.629	529.4
603.039	519.6
603.45	543.8
603.86	519.8
604.271	529.6
604.703	521
605.114	524.6
605.525	522.6
605.935	522.4
606.346	533.4
606.757	523
607.168	521.6
607.579	526
607.99	536.2
608.402	520.8
608.813	521.4
609.224	512.8
609.636	506
610.047	515.4
610.48	523
610.892	521.2
611.303	524.4
611.715	516.4
612.127	514.4
612.539	521.6
612.95	512.8
613.362	509.2
613.774	515.2
614.186	504
614.599	515.4
615.011	520.8
615.423	524.4
615.835	517
616.248	510.4
616.66	521.8
617.073	514.4
617.485	516.2
617.898	520.2
618.311	515.8
618.723	513.4
619.136	536.4
619.549	528.8
619.962	540
620.375	512.4
620.788	515.8
621.201	513.6
621.614	523.4
622.028	515
622.441	521.2
622.854	526
623.268	511.2
623.681	520.6
624.095	510.4
624.509	521.8
624.922	517.2
625.336	509.8
625.728	515.2
626.142	522
626.556	518.8
626.97	512
627.384	507.8
627.799	509.6
628.213	527.2
628.627	517.2
629.041	503.4
629.456	511.8
629.87	516
630.285	522.2
630.699	519.8
631.093	515.6
631.507	527.2
631.922	516.8
632.337	529.6
632.752	508.2
633.167	508.6
633.582	505
633.997	508.4
634.412	505.6
634.806	506
635.221	507.6
635.637	515.6
636.052	510.6
636.468	514
636.883	520.6
637.299	508.4
637.715	499.6
638.109	517.8
638.525	504
638.941	524.8
639.357	519.8
639.773	519.8
640.189	510
640.584	510.6
641	509.4
641.416	507
641.832	513.4
642.249	506.4
642.665	513.6
643.06	514
643.477	521.2
643.894	505.6
644.31	512.4
644.727	511.2
645.123	505.4
645.54	503.8
645.957	505
646.374	527.4
646.77	511.8
647.187	525.8
647.604	506.8
648.021	504.8
648.439	505.4
648.835	511.6
649.252	518.2
649.67	501.2
650.088	511
650.484	505.8
650.902	514.4
651.32	512.8
651.738	508
652.134	509.4
652.552	528.6
652.971	513.4
653.389	511.8
653.786	530
654.204	510.6
654.622	502.6
655.019	508.6
655.438	513
655.857	512.4
656.275	521.2
656.673	502.8
657.091	521.2
657.51	502.8
657.908	508
658.327	522.2
658.746	498
659.144	507.4
659.563	515.8
659.982	506.8
660.38	494
660.8	512.8
661.219	511.2
661.617	516.2
662.037	509.8
662.457	514.4
662.855	489
663.275	525
663.695	513.4
664.094	505.6
664.514	505
664.934	497.6
665.333	510.6
665.753	499.2
666.152	504.2
666.572	501
666.993	519.4
667.392	502
667.812	512.8
668.212	500.6
668.632	515.4
669.053	501.6
669.453	509.6
669.874	505.4
670.273	502.2
670.694	503.4
671.116	508.8
671.515	513.8
671.937	503.4
672.337	501.6
672.758	502.4
673.158	507.8
673.58	500
673.98	509
674.402	519.6
674.824	506.2
675.224	499.2
675.646	501.6
676.047	496
676.469	494.4
676.869	499.8
677.292	502.8
677.693	497
678.115	501.2
678.516	508.2
678.939	498.2
679.34	508.2
679.762	513.6
680.164	509.8
680.586	498.8
680.988	504.8
681.411	522
681.812	507.4
682.236	502.6
682.637	496.4
683.061	495.4
683.462	502.8
683.864	497.8
684.288	509.6
684.69	498
685.114	510.4
685.516	512.2
685.94	498.4
686.342	510
686.766	504
687.168	507.6
687.571	515.4
687.995	509.2
688.398	492.8
688.822	502.2
689.225	510.6
689.628	518.2
690.052	510.4
690.456	511.6
690.88	505
691.284	497.8
691.687	508.8
692.112	498.4
692.515	497.6
692.919	502.2
693.344	507.8
693.747	506.6
694.173	502.4
694.577	503.6
694.98	507.2
695.406	489
695.81	506.2
696.214	508
696.64	501.8
697.044	508.2
697.448	508
697.874	505.4
698.279	503.6
698.684	496
699.11	491
699.514	504.4
699.919	500.6
700.324	493
700.75	509.6
701.156	499.4
701.561	517
701.987	509.2
702.393	513.4
702.798	512.8
703.203	505.2
703.63	499.4
704.036	500
704.442	497.8
704.847	494.4
705.274	505.2
705.68	500.2
706.086	512.8
706.492	494.4
706.92	499.6
707.326	502.2
707.732	493
708.139	500
708.545	491.8
708.973	505.6
709.38	503
709.786	490.8
710.193	515.6
710.6	502.4
711.028	487.4
711.435	500.6
711.842	501.2
712.249	503
712.656	500.4
713.064	512.2
713.492	499.6
713.9	505.8
714.307	503.8
714.715	504.6
715.123	501.8
715.53	499.6
715.938	512.2
716.367	508
716.775	503.2
717.184	491.8
717.592	497.8
718	514
718.408	528.4
718.816	532.2
719.225	498
719.633	492.6
720.042	488.6
720.472	492.8
720.881	515
721.29	504.8
721.699	488.8
722.108	503.2
722.517	498
722.926	501.4
723.335	500
723.744	492.6
724.154	497.6
724.563	498.4
724.973	504.6
725.382	503.8
725.792	499
726.202	493.4
726.612	505
727.022	503.8
727.432	495
779.813	500.6
780.223	530
780.634	497.2
781.044	497.6
781.454	498.4
781.865	514.8
782.276	490.8
782.686	507
783.097	496.4
783.508	498.8
783.919	496.4
784.33	508.2
784.741	509.8
785.152	497
785.563	493
785.974	496.8
786.386	509.4
786.776	499
787.188	499.8
787.599	489.4
788.011	499.2
788.423	499
788.835	494
789.247	487.6
789.659	495
790.071	497.8
790.483	528
790.874	493.6
791.286	505.4
791.699	488.4
792.111	493.6
792.524	505
792.937	492.8
793.349	497.2
793.741	500.2
794.154	497.4
794.567	522.2
794.98	499
795.393	494
795.785	508.2
796.198	495
796.612	500.4
797.026	495.8
797.439	483.4
797.831	502
798.245	498.8
798.659	498
799.073	498
799.487	495
799.88	504
800.294	504.4
800.708	499
801.123	501.6
801.516	506.6
801.93	494.8
802.345	493.8
802.76	507.2
803.153	511.4
803.568	506.6
803.983	508.8
804.377	506.6
804.792	490.6
805.207	488.8
805.601	496.8
806.016	523.6
806.432	491.6
806.826	521
807.242	503.8
807.658	504.4
808.052	496.2
808.468	489.6
808.884	492.4
809.279	495.6
809.695	500.2
810.111	509
810.506	500
810.922	505.6
811.339	498
811.734	505.6
812.151	495
812.546	491.6
812.963	489.6
813.38	500.4
813.776	491.2
814.193	516.2
814.589	492
815.006	491.2
815.402	493.2
815.82	498.6
816.237	496
816.633	504.4
817.051	495.4
817.448	503.8
817.866	489.8
818.262	513.2
818.68	489.4
819.077	482.2
819.495	491.4
819.892	524
820.311	493.8
820.708	500.2
821.127	490.4
821.524	510.8
821.943	496
822.34	512
822.759	498.6
823.157	490
823.576	508.8
823.974	499
824.393	580.6
824.791	489.8
825.189	493.2
825.609	494.2
826.007	494.6
826.427	487.8
826.826	490.4
827.246	502.2
827.644	477.6
828.043	506.4
828.463	491.2
828.862	502
829.261	497.8
829.682	483.2
830.081	500.6
830.502	490
830.901	499.8
831.301	493.4
831.722	487.6
832.121	496.4
832.521	495.4
832.943	492.6
833.342	498.4
833.742	486.2
834.164	496
834.564	487.2
834.965	497
835.386	498
835.787	498.2
836.188	497.6
836.588	492.6
837.01	487.4
837.411	485.6
837.812	500.2
838.213	497
838.636	499.4
839.037	548
839.438	496.4
839.84	500.2
840.263	491.8
840.664	504.2
841.066	496.2
841.468	500.4
841.891	490.8
842.293	504.4
842.695	502
843.098	502.8
843.5	496.4
843.902	503
844.326	499.6
844.729	497.4
845.131	503.4
845.534	502.4
845.937	506.8
846.34	507
846.764	505.4
847.167	497.4
847.571	490.8
847.974	508
848.377	497.6
848.781	534.6
849.184	514
849.588	501.2
849.992	493.4
850.396	498.4
850.821	509.2
851.225	498.6
851.63	491.8
852.034	503.2
852.438	500.6
852.843	514.2
853.247	485.4
853.652	491.6
854.057	505.6
854.462	493.6
854.867	498.6
855.272	516.4
855.677	501.2
856.082	488.8
856.487	495
856.893	496.6
857.298	489.2
857.704	485.4
858.11	494.8
858.516	502.2
858.922	496.6
859.328	506.8
859.734	495
860.14	499.8
860.525	497.6
860.931	489.8
861.338	499.6
861.745	498.8
862.151	506
862.558	498.6
862.965	491.4
863.372	489.8
863.779	493.6
864.186	506.4
864.572	495.2
864.98	518.4
865.387	522.6
865.795	487.2
866.203	496.4
866.61	486.8
867.018	500.6
867.405	504.6
867.813	493.2
868.221	494.6
868.63	493.2
869.038	505
869.425	525.4
869.834	498.8
870.243	486
870.652	491.6
871.039	492.6
871.448	492
871.857	498.8
872.266	495
872.654	491.6
873.064	487.4
873.473	498.8
873.883	494.4
874.271	496
874.681	504.6
875.091	484.6
875.48	505.8
875.89	505.8
876.3	488.6
876.689	481.2
877.1	493.6
877.51	497.2
877.9	505.2
878.31	491
878.721	512.6
879.111	493.6
879.522	494.4
879.933	484.6
880.323	483
880.734	490.2
881.125	499.6
881.536	487
881.948	485.4
882.338	497.6
882.75	494.4
883.141	485.8
883.553	502
883.944	507.8
884.356	499
884.769	495
885.16	504.4
885.573	493.2
885.964	488.2
886.377	496
886.768	490.4
887.181	495.2
887.573	491.6
887.987	500.4
888.378	501.6
888.792	497.6
889.184	533.2
889.598	489.6
889.99	496.6
890.383	485.4
890.797	482.8
891.19	503
891.604	495
891.997	484
892.411	491.8
892.805	483
893.198	490.8
893.613	486.8
894.006	491.2
894.421	488.2
894.815	487.6
895.209	492
895.624	520.4
896.018	503
896.412	488.2
896.828	485.2
897.222	499.8
897.617	488
898.033	509
898.427	501.8
898.822	495.8
899.239	490.8
899.634	491.6
900.029	502.6
900.424	480.4
900.841	484
901.236	499.6
901.632	496.6
902.027	533
902.445	505.2
902.841	495.6
903.237	488
903.633	503
904.05	488.6
904.447	492.6
904.843	499.6
905.24	489
905.636	484
906.033	490.8
906.451	503.4
906.848	483.2
907.246	492.8
907.643	497.8
908.04	499
908.438	505.8
908.835	496.8
909.254	494.6
909.652	496.8
910.05	488.8
910.448	485
910.846	496
911.244	489.8
911.643	495.8
912.041	493.2
912.44	504.8
912.839	488.8
913.237	485
913.636	484.4
914.035	502.6
914.434	492.2
914.834	498
915.233	497
915.633	485.8
916.032	479.6
916.432	486.2
916.832	507
917.232	494.4
917.632	484.2
918.032	489.4
918.432	484.4
918.833	495.4
919.233	481.4
919.634	482.2
920.035	493
920.436	476.8
920.837	501.2
921.238	478.6
921.639	487.2
922.019	492.2
922.42	499.6
922.822	498
923.224	493
923.625	495.8
924.027	492.8
924.429	503.2
924.81	497.2
925.212	495.8
925.615	491.4
926.017	490.6
926.42	503
926.801	496.6
927.204	492.6
927.607	500
928.01	497.6
928.413	494.8
928.795	482.6
929.199	491.8
929.602	480.6
930.006	489.8
930.388	486.4
930.792	497
931.196	487.8
931.579	527.2
931.983	491.2
932.388	533.2
932.771	480.2
933.176	486.8
933.58	488.4
933.964	500.2
934.369	484.6
934.774	497.6
935.158	497.4
935.563	493.8
935.947	497
936.353	494
936.759	487.8
937.143	499.6
937.549	499.4
937.934	503.8
938.34	511.6
938.746	487.2
939.131	495
939.538	493.4
939.923	491
940.33	489.6
940.716	495.6
941.123	494.6
941.508	501.4
941.916	506.4
942.302	500.8
942.709	479.8
943.096	482.8
943.503	497.4
943.89	491.8
944.298	486.8
944.685	516.8
945.072	490.2
945.48	495.8
945.867	484.8
946.276	480.8
946.663	515.8
947.051	506.8
947.46	500.6
947.848	493
948.257	482.2
948.645	495.8
949.033	480.8
949.443	486.6
949.831	523.8
950.22	490.4
950.63	504.8
951.018	514.4
951.407	492.2
951.796	485.4
952.207	489.6
952.596	496.4
952.985	489.6
953.375	525
953.786	480.8
954.176	486.4
954.566	490.2
954.956	478.4
955.367	490.8
955.758	504.6
956.148	485.2
956.539	494.6
956.929	484
957.341	488.6
957.732	495.2
958.123	500.2
958.515	489.2
958.906	500
959.297	479.6
959.689	488.6
960.102	483.8
960.494	496.4
960.886	485.8
961.278	482.6
961.67	508.2
962.062	519
962.455	481.4
962.847	487.8
963.24	487.8
963.633	491.6
964.026	475.2
964.419	484.8
964.812	496.8
965.206	490.2
965.599	493.2
965.993	490.2
966.386	491.6
966.78	500
967.174	508
967.569	485
967.963	487
968.357	483
968.752	482.2
969.146	484.4
969.541	485.6
969.936	487.6
970.331	488
970.705	484.6
971.1	484.2
971.496	491.4
971.892	484.4
972.287	480.2
972.683	493.8
973.079	486
973.454	502.6
973.85	488.6
974.247	488.2
974.643	509.6
975.04	488.4
975.415	483.8
975.812	480
976.209	494.4
976.607	483.4
976.982	500.8
977.38	502
977.778	488.4
978.175	486.8
978.552	490.2
978.95	492.6
979.348	499.2
979.725	521.4
980.123	493.8
980.522	492.4
980.899	491
981.298	489.6
981.697	485.8
982.075	488.4
982.474	486.2
982.852	489.4
983.251	490.6
983.651	486
984.029	491.6
984.429	488.2
984.808	482.4
985.208	490
985.609	477.8
985.987	480.4
986.388	488.2
986.768	497.8
987.168	486
987.548	501.4
987.949	493.4
988.329	495.4
988.731	487.4
989.111	492.8
989.491	480
989.893	487.6
990.273	504.2
990.676	490.4
991.057	490.2
991.459	487.8
991.84	491.8
992.221	491.2
992.624	499.8
993.006	497
993.388	489.6
993.791	487.4
994.173	499.8
994.576	508.2
994.959	479.8
995.341	489.6
995.724	487.2
996.128	492.8
996.511	497.2
996.894	487.6
997.298	482.4
997.681	494.6
998.065	480.2
998.448	487.6
998.854	492.4
999.237	481.8
999.621	496.6
1000.01	502.6
1000.39	489.8
1000.8	482
1001.18	494
1001.56	493.8
1001.95	500.8
1002.33	498.4
1002.72	492
1003.13	492.4
1003.51	490
1003.9	482.8
1004.28	504.2
1004.67	486.6
1005.06	488.2
1005.44	515
1005.83	479.4
1006.21	488.6
1006.6	481
1006.99	491.8
1007.37	492.6
1007.76	491.4
1060.12	476.2
1060.51	485
1060.89	487.8
1061.28	492.6
1061.67	502.2
1062.06	486.4
1062.45	488.6
1062.83	481.6
1063.22	493
1063.61	523
1064	496.2
1064.39	487.6
1064.78	480.8
1065.14	493.8
1065.53	485.8
1065.92	487.4
1066.31	483
1066.7	482.4
1067.09	496
1067.46	494.8
1067.85	477.6
1068.24	485.6
1068.63	483.4
1069.02	470.6
1069.39	495.4
1069.78	487.4
1070.17	484
1070.57	488
1070.93	486.8
1071.33	482.4
1071.72	487.4
1072.11	479.2
1072.48	476.6
1072.87	487.2
1073.26	490.6
1073.64	485.6
1074.03	482.2
1074.4	490
1074.79	490.2
1075.19	484.2
1075.56	487
1075.95	496.4
1076.34	494.6
1076.72	487.6
1077.11	491.4
1077.48	491
1077.88	488
1078.25	490.2
1078.64	500.8
1079.02	500.6
1079.41	492
1079.78	495.6
1080.18	487.2
1080.55	537.4
1080.95	485
1081.32	487.2
1081.72	490.6
1082.09	491.4
1082.49	480.2
1082.86	484.6
1083.24	483
1083.63	481.6
1084.01	481.8
1084.38	495.4
1084.78	488
1085.16	490
1085.55	498.2
1085.93	497
1086.31	486
1086.7	511.8
1087.08	495.2
1087.46	488.6
1087.83	478
1088.23	497.8
1088.61	483.2
1088.99	486.8
1089.36	485.4
1089.76	487.2
1090.14	488.2
1090.52	475.8
1090.9	487.2
1091.27	501.4
1091.67	502.4
1092.05	488.4
1092.43	489
1092.81	492
1093.19	490.4
1093.57	481
1093.95	482.8
1094.35	488.2
1094.73	494.8
1095.11	477.8
1095.49	486.2
1095.87	486.6
1096.25	492.8
1096.63	497
1097.01	487.8
1097.39	491
1097.77	492.4
1098.15	490.8
1098.53	481
1098.91	486.8
1099.29	490.2
1099.68	502
1100.06	494.2
1100.44	487.2
1100.82	488.4
1101.18	492.6
1101.56	488.4
1101.95	487
1102.33	486
1102.71	488.4
1103.1	468.2
1103.48	482.2
1103.86	477.2
1104.22	492.4
1104.61	483.6
1104.99	476.2
1105.38	473.8
1105.76	482.6
1106.12	486.6
1106.51	519.6
1106.89	493.2
1107.26	480.4
1107.64	492.6
1108.03	489.8
1108.41	489.8
1108.78	481.6
1109.16	490.6
1109.55	498.6
1109.91	473.2
1110.3	475.8
1110.69	494
1111.05	480.8
1111.44	487.4
1111.8	486.2
1112.19	480.4
1112.58	491.6
1112.94	483.6
1113.33	483.6
1113.7	478
1114.09	480.4
1114.45	480
1114.84	485
1115.21	490
1115.6	481.8
1115.96	484.4
1116.35	485.4
1116.72	482.8
1117.11	490.6
1117.48	481.4
1117.85	479.6
1118.24	494.8
1118.6	492.8
1118.99	481.6
1119.36	491.6
1119.73	492.2
1120.12	487.6
1120.49	475.6
1120.86	487.4
1121.25	486.2
1121.62	476.8
1121.99	481.2
1122.38	497.4
1122.76	494.4
1123.13	481.6
1123.5	485.2
1123.89	498.4
1124.26	473.6
1124.63	484.8
1125	485.4
1125.4	469.4
1125.77	482.2
1126.14	480
1126.51	487.4
1126.88	487.2
1127.26	480.4
1127.63	473
1128.02	480.4
1128.4	479.2
1128.77	483.2
1129.14	480.4
1129.52	488.8
1129.89	491.8
1130.26	478.8
1130.64	481.2
1131.01	484.2
