#lambda/nm	C1
208.295	464.4
208.67	431.4
209.045	395.6
209.419	395.6
209.794	536
210.169	513.2
210.544	619
210.919	538.8
211.295	527.2
211.67	541
212.045	528
212.421	525.4
212.796	555.2
213.172	527.8
213.547	534.6
213.923	532.6
214.299	528.6
214.675	539.6
215.051	535.4
215.427	538.8
215.803	546.8
216.179	528
216.555	519.4
216.932	545.4
217.308	535
217.684	533.2
218.061	531.8
218.438	531.6
218.814	527.4
219.191	533.2
219.568	519
219.945	528.2
220.322	540.2
220.699	535
221.076	541.4
221.453	533
221.83	532.4
222.208	521.2
222.585	533
222.962	533
223.34	533.6
223.717	528.6
224.095	530.8
224.473	534.4
224.851	521.6
225.229	523.6
225.607	547.4
225.985	523
226.363	532.4
226.741	530.4
227.119	529.2
227.497	543.4
227.876	518.6
228.254	540.2
228.633	533.6
229.011	532.2
229.39	543
229.769	529.6
230.148	538.6
230.527	540.8
230.905	530.8
231.284	539.8
231.664	529.8
232.043	545.8
232.422	537
232.801	530.4
233.181	531.4
233.56	529
233.94	532.8
234.319	519.2
234.699	525.6
235.079	561.4
235.458	558.6
235.838	544.8
236.218	527
236.598	522.6
236.978	526
237.358	527.6
237.738	520.6
238.119	533.2
238.499	516.4
238.88	529.8
239.26	537
239.641	525.4
240.021	519.6
240.402	533.8
240.783	519.4
241.163	531
241.544	533
241.925	526.6
242.306	552.2
242.687	519.2
243.069	532.2
243.45	536.2
243.831	527.4
244.212	529.2
244.594	563.8
244.975	533.2
245.357	531.2
245.739	527
246.12	526.6
246.502	532
246.884	525.8
247.266	529.2
247.648	536.4
248.03	546.4
248.412	530.4
248.794	536.2
249.176	529.4
249.559	535.8
249.941	518
250.323	525.4
250.706	524.8
251.089	535.8
251.471	530.6
251.854	531.2
252.237	521.8
252.62	545.4
253.002	532.2
253.385	526.2
253.769	544.4
254.152	533.2
254.535	535.6
254.918	527.4
255.301	525.2
255.685	523.8
256.068	526.8
256.452	546
256.835	537.4
257.219	534
257.603	533.4
257.986	511.6
258.37	537.2
258.754	519.2
259.138	534.4
259.522	542.6
259.906	528.6
260.29	531.2
260.675	525.2
261.059	528
261.443	526.6
261.828	534
262.212	527.8
262.597	521.4
262.981	529.6
263.366	542.8
263.751	526
264.136	526.6
264.521	524.4
264.906	517.4
265.291	544.2
265.676	526
266.061	538.2
266.446	550.8
266.831	533
267.217	547.6
267.602	536
267.987	531
268.373	526.2
268.759	541.8
269.144	528.4
269.53	529.4
269.916	526.6
270.302	526.6
270.688	534.4
271.074	533.8
271.46	531
271.846	554.4
272.232	526.6
272.618	526.4
273.004	525.8
273.391	541.2
273.777	538.2
274.164	530.2
274.55	538.4
274.937	529.8
275.324	527.8
275.71	542
276.097	533.4
276.484	528
276.871	533.6
277.258	528.2
277.645	521
278.032	525.2
278.419	528.2
278.807	524.6
279.194	523.8
279.581	520.6
279.969	536.6
280.356	527.6
280.744	520.8
281.131	538.8
281.519	528.2
281.907	524.6
282.295	522.6
282.682	542.8
283.07	525
283.458	534
283.846	537.4
284.235	544
284.623	535.4
285.011	523.4
285.399	534.6
285.788	525
286.176	523
286.565	541.4
286.953	527
287.342	525.2
287.731	521.2
288.119	526.8
288.508	526.2
288.897	526.8
289.286	520.6
289.675	523
290.064	538.2
290.453	526.4
290.821	525.2
291.21	542.4
291.599	526.2
291.989	533.4
292.378	541.2
292.768	550.4
293.157	535.8
293.547	536
293.936	521.2
294.326	527.4
294.716	540.6
295.106	534.2
295.496	537
295.886	541.2
296.276	536.4
296.666	528
297.056	527.8
297.446	521.8
297.836	538
298.227	527
298.617	530.2
299.008	535.6
299.398	532.6
299.789	526
300.179	537.4
300.57	542.4
300.961	528.6
301.352	523.8
301.742	542.8
302.133	532.4
302.524	532.4
302.915	530.4
303.307	532
303.698	524.2
304.089	535
304.48	532.8
304.872	530
305.263	526.6
305.655	525.4
306.046	532.4
306.438	524.4
306.829	530
307.221	546.4
307.613	539.6
308.005	542.2
308.397	533.8
308.789	546.2
309.181	551.4
309.573	548
309.965	542.2
310.357	531.2
310.749	540
311.142	533.8
311.534	527.4
311.926	542
312.319	531.4
312.711	526.4
313.104	543.2
313.497	523.8
313.889	559.4
314.282	544.6
314.675	549.4
315.068	530.4
315.461	539.6
315.854	552.6
316.247	535.8
316.64	531.6
317.033	534.6
317.405	540.8
317.798	534.6
318.192	533.4
318.585	526.4
318.979	542.2
319.372	530
319.766	530
320.16	538.4
320.553	547.4
320.947	548.4
321.341	522
321.735	530.8
322.129	524.2
322.523	548.8
322.917	521
323.311	542.2
323.705	540.2
324.099	540
324.494	547.8
324.888	545.2
325.282	536.8
325.677	535.6
326.071	537.2
326.466	540.4
326.861	533.2
327.255	544
327.65	545.6
328.045	549
328.44	536.4
328.835	531.6
329.23	529.2
329.625	549.6
330.02	528.4
330.415	546.4
330.81	537.2
331.206	534.4
331.601	527.2
331.996	538.4
332.37	548
332.766	524.4
333.161	551
333.557	533
333.953	533.4
334.348	823.6
334.744	526.8
335.14	531.2
335.536	526.6
335.932	542.4
336.328	526.4
336.724	541.2
337.12	533.8
337.516	535.2
337.913	530.2
338.309	543.2
338.705	533.8
339.102	532
339.498	526
339.895	532.4
340.291	525.2
340.688	527.8
341.085	525.6
341.481	521.8
341.878	528.2
342.275	538.4
342.672	528.4
343.069	526.4
343.466	530.6
343.842	542.2
344.239	530.6
344.636	534
345.033	522.2
345.431	526
345.828	531.8
346.225	527.6
346.623	562.2
347.02	529.4
347.418	535
347.816	548.4
348.213	522.4
348.611	530
349.009	527.4
349.407	537.2
349.805	527.2
350.203	528.8
350.601	543.4
350.999	523.6
351.397	555.4
351.795	523.4
352.193	535.4
352.57	536
352.969	539.4
353.367	522.4
353.766	526.4
354.164	526.8
354.563	527.8
354.961	530.4
355.36	527
355.759	524.8
356.158	526.6
356.557	519.4
356.956	522.4
357.355	524.6
357.754	529
358.153	528.8
358.552	550.6
358.951	525.6
359.35	540.2
359.75	520.6
360.149	517
360.527	519.2
360.926	517.6
361.326	528.4
361.726	529.6
362.125	516.6
362.525	530.4
362.925	519.6
363.325	523.4
363.724	523.8
364.124	516.6
364.524	520.6
364.924	524.2
365.324	528
365.725	509.2
366.125	522
366.525	526.8
366.904	524
367.304	512.4
367.705	538.6
368.105	528.6
368.506	524.2
368.906	523.2
369.307	521.8
369.708	526.6
370.108	518
370.509	532.6
370.91	521
371.311	526
371.712	525
372.113	519.2
372.514	510.6
372.894	521.4
373.295	509.8
373.696	525.8
374.097	529.2
374.499	550
374.9	522
375.301	509.4
375.703	523.4
376.105	506
376.506	522.2
376.908	519.6
377.309	523.2
377.711	520.2
378.113	508.8
378.493	517
378.895	512.8
379.297	523.8
379.699	507.2
380.102	523.8
380.504	517.2
380.906	514.2
381.308	542.2
381.71	515.4
382.113	536
382.515	524.6
382.918	520.6
383.299	526
383.701	527.2
384.104	525.8
384.507	515
384.909	523.2
385.312	521.4
385.715	518.8
386.118	520
386.521	512.4
386.924	530.4
387.327	518.8
387.709	510.8
388.112	505.4
388.515	514.4
388.918	528.6
389.322	525.6
389.725	515.6
390.129	543.8
390.532	519.2
390.936	523.2
391.339	521.4
391.743	519.2
392.125	519.6
392.529	528.8
392.933	538.4
393.337	523.8
393.74	521
394.144	523
394.548	516.4
394.953	517.4
395.357	529.6
395.761	518.2
396.144	526.8
396.548	519
396.952	519.6
397.357	522.8
397.761	518.8
398.166	516
398.57	523.6
398.975	504.4
399.379	522.8
399.763	560.6
400.168	520.8
400.572	514
400.977	517
401.382	537
401.787	522.2
402.192	539
402.597	532.2
403.002	507.8
403.386	534.8
403.791	540.2
404.197	513.8
404.602	519.6
405.007	515.6
405.413	512.4
405.818	520.8
406.224	513
406.608	518.6
407.014	516.2
407.42	541.2
407.825	519
408.231	524.2
408.637	523
409.043	530.8
409.449	520
409.834	517.4
410.24	523.2
410.646	527.8
411.052	530
411.458	524.8
411.865	533.2
412.271	537.4
412.677	518.2
413.062	527
413.469	511.6
413.875	547.6
414.282	531.8
414.689	523.6
415.095	533.6
415.502	523.6
415.888	525.4
416.294	512.2
416.701	550
417.108	518.4
417.515	529
417.923	519
418.33	538.6
418.715	524
419.123	522.2
419.53	515.4
419.937	523.6
420.345	534.4
420.752	517.4
421.16	527.8
421.546	519.6
421.953	534.8
422.361	515.4
422.769	535
423.177	515.4
423.585	546.4
423.992	539.4
424.379	531.6
424.787	528.4
425.195	545
425.603	517.6
426.011	536.2
426.419	537
426.806	530.8
427.214	530.2
427.623	538.8
428.031	536.6
428.44	529
428.848	536.4
429.235	537.2
429.644	531.4
430.053	524.6
430.461	534.4
430.87	539.2
431.279	536.2
431.666	522
432.075	520.8
432.484	531.2
432.893	517.2
433.302	534.8
433.711	551.2
434.099	523
434.508	516.4
434.918	513.6
435.327	528
435.737	523.4
436.125	519.6
436.534	526.6
436.944	521.8
437.353	524.8
437.763	538.4
438.173	516
438.561	527.8
438.971	513
439.381	523.2
439.791	523.6
440.201	502.8
440.589	522.4
440.999	530.4
441.409	517.2
441.819	512
442.23	528.2
442.619	525.6
443.029	518.4
443.439	521.2
443.85	538.2
444.26	537.4
444.649	526
445.06	522.8
445.471	523.2
445.881	517.2
446.292	544.6
446.682	540.4
447.092	506
447.503	563.2
447.914	523.4
448.325	520.2
448.715	529.2
449.126	527
449.537	524
449.948	524.8
450.338	526.2
450.75	526.2
451.161	529.6
451.572	521
451.984	521
452.374	509.6
452.786	521.6
453.197	525.2
453.609	522.8
453.999	511
454.411	514.2
454.823	539.8
455.235	519
455.647	520.4
456.037	517
456.449	506
456.862	516.6
457.274	526
457.665	519.2
458.077	517.8
458.489	539.2
458.902	513.2
459.293	527.2
459.705	518.8
460.118	517.8
460.53	526.6
460.921	519.2
461.334	518.6
461.747	513.6
462.16	522.6
462.551	530.8
462.964	523.4
463.377	506.4
463.79	513.8
464.182	527
464.595	519
465.008	519.2
465.421	516.2
465.813	515.8
466.226	530.4
466.64	521.6
467.053	555.8
467.445	528.4
467.859	528.6
468.272	522.6
468.686	536.2
469.078	514
469.492	510
469.906	517.8
470.298	523
470.712	507.8
471.126	536.6
471.54	498.4
471.933	509.2
472.347	519.6
472.761	506.8
473.175	505.6
473.568	510.4
473.982	499.6
474.397	506.8
474.79	511.6
475.204	520.8
475.619	508.6
476.033	519.6
476.426	507.8
476.841	498.8
477.256	537
477.649	505.8
478.064	507.8
478.479	517.4
478.872	510.2
479.287	504.6
479.702	515.2
480.118	511
480.511	514.4
480.927	515.2
481.342	519.8
481.736	518.4
482.151	512.8
482.566	515.2
482.96	512.4
483.376	522.4
483.792	512
484.186	518
484.602	509.2
485.017	514.2
485.412	511
485.827	517
486.243	514.2
486.638	533.8
487.054	527.6
487.47	526
487.865	508.4
488.281	509.4
488.697	510.4
489.092	512
489.508	505.6
489.925	517.8
490.32	502.6
490.736	518
491.153	509.6
491.548	521
491.964	522.6
492.381	501.4
492.776	525.8
493.193	514.6
493.61	525.6
494.006	512.6
494.422	516.2
494.84	509.8
495.235	525.4
495.652	506
496.069	516.2
496.465	499
496.883	508.6
497.3	532.4
497.696	510
498.113	521.4
498.509	506.6
498.927	501.8
499.344	500
499.741	497
500.158	516
500.576	517.6
500.973	515.2
501.39	505.2
501.787	507.4
502.205	514.8
502.623	513
503.02	503.2
503.438	506.8
503.856	519
504.253	512.6
504.671	523
505.068	510.6
505.486	511.8
505.905	525
506.302	519.4
506.72	521.2
507.118	503
507.536	512.2
507.955	510.4
508.352	524.2
508.771	513.6
509.169	516.8
509.587	515.4
510.006	511
510.404	503.2
510.823	509
511.221	505.2
511.64	510.8
512.038	519.2
512.457	510.2
512.877	514
513.275	506.2
513.694	517.4
514.092	509.8
514.512	508.4
514.91	518.2
515.33	512.8
515.749	506.2
516.148	515
516.568	513.4
516.966	514.6
517.386	511.2
517.785	517
518.205	507.4
518.603	504.8
519.024	513.6
519.444	516
519.843	518.8
520.263	526.4
520.662	514
521.082	507.2
521.481	514.4
521.902	515
522.301	517.6
522.722	516
523.121	514.2
523.542	504.8
523.963	507.8
524.362	504
524.783	511.2
525.183	503.2
525.604	517.2
526.003	507.4
526.425	503.8
526.824	509.4
527.246	513.2
527.646	515.6
528.067	508.6
528.467	507.8
528.888	516
529.289	511
529.71	505.8
530.11	512.4
530.532	512.8
530.932	507.8
531.354	499
531.755	527
532.176	515.8
532.577	503.4
532.999	510.8
533.4	501.4
533.822	511
534.223	509.2
534.645	514.4
535.046	503.6
535.468	515.2
535.869	516.2
536.292	500.2
536.693	528.8
537.115	513
537.516	507
537.939	506.8
538.34	523.4
538.742	515.6
539.165	516.4
539.566	509.6
539.989	503.6
540.391	510.2
540.814	511.6
541.216	514.4
541.639	514
542.041	512.6
542.464	503.6
542.866	504.2
543.268	504.6
543.691	521
544.093	518.2
544.517	530
544.919	512.8
545.343	526.4
545.745	501.4
546.147	506.4
546.571	502.8
546.974	504.4
547.398	510.4
547.8	519.2
548.224	503.4
548.627	502.6
549.03	509.2
549.454	507
549.857	503.8
550.281	496.2
550.684	507.2
551.087	519.6
551.512	514.8
551.915	519
552.34	510
552.743	501
553.146	511.2
553.571	511
553.975	524.2
554.399	506.6
554.803	547
555.207	505
555.632	499.8
556.036	509.4
556.461	500.8
556.865	504
557.268	498.4
557.694	513.4
558.098	517
558.502	505.6
558.927	502.6
559.332	503.6
559.736	503.4
560.162	506.4
560.566	511.4
560.992	513
561.396	512.2
561.801	507.6
562.227	512.4
562.631	509.6
563.036	511.6
563.462	509.6
563.867	507.6
564.272	502
564.698	510.6
565.103	494.6
565.508	527.6
565.935	512.6
566.34	507.4
566.745	516
567.172	509.6
567.577	524.4
567.982	514.4
568.409	510.6
568.815	501.2
569.22	502.4
569.626	508
570.053	488.6
570.459	502.6
570.865	506.6
571.292	510.8
571.698	501.6
572.104	492.2
572.531	503.2
572.937	514.6
573.343	506.8
573.75	502.4
574.177	512
574.583	514.4
574.99	503.6
575.396	506.4
575.824	505.8
576.231	511
576.637	500
577.065	525.8
577.472	506.8
577.879	500.6
578.286	513.8
578.714	507.6
579.121	506
579.528	505.2
579.935	515.8
580.364	500.8
580.771	494
581.178	502.4
581.585	510
582.014	509.4
582.421	509.2
582.829	507
583.236	512.2
583.644	506.8
584.073	506.4
584.481	508.6
584.889	504.8
585.296	515.2
585.726	501.8
586.134	496.8
586.542	510.6
586.95	517.6
587.358	500
587.787	507.8
588.196	498.8
588.604	512.2
589.012	504
589.421	500.6
589.851	499
590.259	514
590.668	510.6
591.076	533.6
591.485	508.2
591.894	509
592.324	514.2
592.733	523.4
593.142	494.2
593.551	498.4
593.96	502.8
594.369	496.4
594.8	500
595.209	505
595.618	498.4
596.028	492.6
596.437	498.4
596.847	501.4
597.256	509.2
597.687	506.6
598.097	507
598.507	495.4
598.917	511.4
599.327	512.8
599.736	505.6
600.146	517.6
600.556	511.8
600.988	517.8
601.398	496.4
601.808	513.8
602.219	493.2
602.629	495.8
603.039	504.8
603.45	523.8
603.86	515.6
604.271	520.8
604.703	502.8
605.114	505.2
605.525	507.6
605.935	516.2
606.346	525
606.757	504.8
607.168	503.2
607.579	494.8
607.99	512.6
608.402	510
608.813	509.6
609.224	497.4
609.636	499
610.047	499.6
610.48	508.4
610.892	514.4
611.303	511
611.715	504
612.127	501.6
612.539	503.2
612.95	512.6
613.362	492.4
613.774	499.8
614.186	504.2
614.599	500.4
615.011	515.2
615.423	504
615.835	496.8
616.248	500.2
616.66	512
617.073	494.8
617.485	504.4
617.898	508.6
618.311	512.2
618.723	495
619.136	521.6
619.549	513
619.962	523.2
620.375	511.2
620.788	506.6
621.201	505.2
621.614	509.8
622.028	499.4
622.441	509.6
622.854	515.4
623.268	496
623.681	512.4
624.095	510.4
624.509	511
624.922	507
625.336	501.4
625.728	504.8
626.142	505.8
626.556	517.8
626.97	500.8
627.384	504.6
627.799	500
628.213	517
628.627	501.4
629.041	501.8
629.456	504.4
629.87	507.2
630.285	507.8
630.699	508
631.093	503
631.507	511.2
631.922	514.6
632.337	517.2
632.752	489.2
633.167	499.2
633.582	502
633.997	499.8
634.412	506.8
634.806	507.4
635.221	494.6
635.637	513
636.052	492.8
636.468	504
636.883	516
637.299	502.4
637.715	492.2
638.109	498.4
638.525	496
638.941	505.8
639.357	499.4
639.773	510.4
640.189	501.6
640.584	500.6
641	497.8
641.416	489.8
641.832	501.2
642.249	503.4
642.665	503.6
643.06	510.2
643.477	516.2
643.894	496.4
644.31	503.8
644.727	508.2
645.123	498.8
645.54	495.2
645.957	508
646.374	522
646.77	508.8
647.187	532.8
647.604	501.6
648.021	488.8
648.439	497
648.835	509.6
649.252	498.6
649.67	507
650.088	505.2
650.484	507.8
650.902	501.8
651.32	500.6
651.738	503.6
652.134	500.8
652.552	513.6
652.971	503.8
653.389	497.4
653.786	505.6
654.204	500
654.622	498
655.019	497.6
655.438	502.8
655.857	500.6
656.275	504
656.673	496.6
657.091	503
657.51	493.2
657.908	509.8
658.327	513.6
658.746	503.4
659.144	498.8
659.563	510
659.982	507.6
660.38	491
660.8	500
661.219	516.2
661.617	502.4
662.037	502.8
662.457	513.4
662.855	489.4
663.275	514.8
663.695	505.4
664.094	498
664.514	498.4
664.934	489
665.333	512.4
665.753	498.4
666.152	493.6
666.572	490
666.993	505.6
667.392	494
667.812	499.6
668.212	493.6
668.632	503.6
669.053	493.2
669.453	505.2
669.874	504.4
670.273	507.8
670.694	493
671.116	504.8
671.515	506.6
671.937	501.4
672.337	499.6
672.758	496
673.158	497.6
673.58	491.2
673.98	505.4
674.402	511.6
674.824	494.6
675.224	497.4
675.646	492.6
676.047	499.4
676.469	502.6
676.869	504.8
677.292	506
677.693	496
678.115	496.6
678.516	509.2
678.939	500.6
679.34	496.2
679.762	511.2
680.164	496.6
680.586	491.8
680.988	510.2
681.411	523.4
681.812	498.2
682.236	500.6
682.637	489.8
683.061	499.8
683.462	498.8
683.864	494
684.288	507.4
684.69	491.6
685.114	508.6
685.516	502.6
685.94	499
686.342	510.6
686.766	494.2
687.168	504.2
687.571	514.2
687.995	502
688.398	490.6
688.822	496.2
689.225	512
689.628	524.2
690.052	500.2
690.456	503.6
690.88	500
691.284	495.4
691.687	503.6
692.112	494.6
692.515	499.2
692.919	497.8
693.344	506.4
693.747	501.8
694.173	494.2
694.577	513.2
694.98	494.2
695.406	502
695.81	496.6
696.214	500
696.64	501.4
697.044	506.4
697.448	506.6
697.874	499
698.279	497.6
698.684	493.4
699.11	494.6
699.514	500.4
699.919	496.2
700.324	496.6
700.75	499.2
701.156	494.8
701.561	505.6
701.987	498.6
702.393	502
702.798	508.8
703.203	498.8
703.63	502.2
704.036	496.8
704.442	492.8
704.847	491.6
705.274	495.8
705.68	509.4
706.086	510.2
706.492	501.6
706.92	501.8
707.326	505.6
707.732	499.2
708.139	489.4
708.545	485
708.973	497
709.38	502.4
709.786	484.6
710.193	512.4
710.6	499
711.028	490.8
711.435	504.4
711.842	498.4
712.249	497.4
712.656	500.6
713.064	508.8
713.492	492.8
713.9	500.2
714.307	499.2
714.715	500.2
715.123	498.8
715.53	501.2
715.938	507.4
716.367	500
716.775	492.6
717.184	500.4
717.592	495
718	503.8
718.408	527.4
718.816	540.4
719.225	508.8
719.633	506.2
720.042	496.2
720.472	498.2
720.881	519.4
721.29	499.6
721.699	491.6
722.108	509.6
722.517	498.2
722.926	504.6
723.335	502.4
723.744	506.2
724.154	494.8
724.563	489.8
724.973	504.4
725.382	495.8
725.792	497.8
726.202	491
726.612	506.8
727.022	496.8
727.432	493
779.813	494.8
780.223	535
780.634	490.4
781.044	495.6
781.454	498.4
781.865	507.6
782.276	491
782.686	511.6
783.097	494.4
783.508	489.4
783.919	497.4
784.33	508
784.741	513
785.152	489.8
785.563	486.2
785.974	491.4
786.386	505.6
786.776	502.4
787.188	497
787.599	489
788.011	513.6
788.423	505
788.835	490.4
789.247	490.8
789.659	493.4
790.071	490.2
790.483	532.2
790.874	500.8
791.286	502.6
791.699	497.6
792.111	499.8
792.524	497.2
792.937	503.2
793.349	484.2
793.741	490
794.154	494.6
794.567	513.6
794.98	503.4
795.393	481.2
795.785	509
796.198	485.4
796.612	502.6
797.026	494.2
797.439	496.4
797.831	494.4
798.245	491.6
798.659	493
799.073	494
799.487	492
799.88	489.6
800.294	495.8
800.708	494
801.123	485.4
801.516	516.4
801.93	487.4
802.345	477.4
802.76	495.2
803.153	510.6
803.568	496
803.983	499.2
804.377	497
804.792	483.6
805.207	482.8
805.601	493.2
806.016	514.4
806.432	492.8
806.826	521.2
807.242	502.6
807.658	501.4
808.052	488.6
808.468	494
808.884	495
809.279	490.2
809.695	511.6
810.111	509.2
810.506	496.2
810.922	510.4
811.339	491.6
811.734	497.8
812.151	493.2
812.546	492.8
812.963	492.4
813.38	495.8
813.776	493.8
814.193	511.8
814.589	482
815.006	490.4
815.402	490.2
815.82	492.8
816.237	489
816.633	496.6
817.051	482.4
817.448	493.6
817.866	487.2
818.262	504.2
818.68	490
819.077	495
819.495	487.2
819.892	530.4
820.311	484.6
820.708	485.6
821.127	493.6
821.524	503.8
821.943	497.6
822.34	508.6
822.759	499.8
823.157	495.2
823.576	506
823.974	502
824.393	586.2
824.791	491.4
825.189	484.2
825.609	493.8
826.007	495.8
826.427	496.2
826.826	497.6
827.246	498.2
827.644	484.4
828.043	503
828.463	495
828.862	500.4
829.261	492.8
829.682	486.8
830.081	505.8
830.502	491.2
830.901	502.4
831.301	488.8
831.722	486.6
832.121	495.6
832.521	486.6
832.943	498.6
833.342	492.6
833.742	490
834.164	491.4
834.564	480.4
834.965	497.2
835.386	490.2
835.787	491.8
836.188	493.4
836.588	493.6
837.01	491.2
837.411	484.4
837.812	503
838.213	491
838.636	490.6
839.037	550
839.438	495.2
839.84	496.2
840.263	497.8
840.664	496.2
841.066	491.6
841.468	496.2
841.891	492.4
842.293	506
842.695	498.8
843.098	502
843.5	487
843.902	494
844.326	493.8
844.729	497.6
845.131	504
845.534	499.8
845.937	502.8
846.34	513
846.764	483
847.167	495.8
847.571	491.6
847.974	491
848.377	485.4
848.781	528.4
849.184	500.6
849.588	495.8
849.992	494
850.396	495.8
850.821	510.4
851.225	496.8
851.63	495
852.034	505.4
852.438	488.2
852.843	512.6
853.247	487.8
853.652	485
854.057	501.8
854.462	499.8
854.867	492.6
855.272	526.4
855.677	499.2
856.082	491.2
856.487	474.2
856.893	494.8
857.298	489.4
857.704	482.2
858.11	491.4
858.516	501.6
858.922	496.6
859.328	504
859.734	504.4
860.14	498
860.525	498.6
860.931	482.2
861.338	494.4
861.745	493.6
862.151	505
862.558	493.4
862.965	489.4
863.372	497.4
863.779	495
864.186	513
864.572	488
864.98	503.8
865.387	512
865.795	484.6
866.203	508.4
866.61	493
867.018	507.2
867.405	503
867.813	496.6
868.221	495
868.63	495.6
869.038	499.6
869.425	522.8
869.834	497
870.243	493.6
870.652	482.4
871.039	496.8
871.448	487.8
871.857	491.4
872.266	489.6
872.654	490.8
873.064	485.8
873.473	499.6
873.883	490.2
874.271	485.2
874.681	505
875.091	480.2
875.48	496.8
875.89	503.8
876.3	489.6
876.689	475.8
877.1	491.2
877.51	488.4
877.9	519.6
878.31	483.4
878.721	517.8
879.111	492.2
879.522	487.4
879.933	481.6
880.323	493.4
880.734	488.8
881.125	493
881.536	492
881.948	489.8
882.338	492
882.75	499.4
883.141	488.6
883.553	490.8
883.944	511.6
884.356	496.8
884.769	489.6
885.16	492.2
885.573	503.4
885.964	495.8
886.377	497.2
886.768	475
887.181	492.2
887.573	483.4
887.987	495.8
888.378	501.4
888.792	494.4
889.184	521.6
889.598	486.6
889.99	490.4
890.383	481.4
890.797	482.6
891.19	502.6
891.604	482.6
891.997	485.4
892.411	484.6
892.805	486
893.198	490.2
893.613	480.8
894.006	491
894.421	484.4
894.815	490.4
895.209	488.8
895.624	528.6
896.018	501
896.412	486.6
896.828	482.8
897.222	497.4
897.617	491.4
898.033	500.2
898.427	496.4
898.822	488.2
899.239	486.4
899.634	477
900.029	504.4
900.424	484.2
900.841	478.4
901.236	497
901.632	496.6
902.027	545.2
902.445	497.6
902.841	496.2
903.237	490.2
903.633	504.2
904.05	498.6
904.447	494.4
904.843	503.4
905.24	494.2
905.636	493.8
906.033	484.8
906.451	500.8
906.848	482.4
907.246	485.2
907.643	488.8
908.04	494.4
908.438	498.8
908.835	486.4
909.254	488.2
909.652	495
910.05	481.6
910.448	479.4
910.846	490.4
911.244	479.8
911.643	497.2
912.041	483.2
912.44	507.6
912.839	480.6
913.237	478.6
913.636	480.6
914.035	498
914.434	492.8
914.834	494.2
915.233	493.8
915.633	490
916.032	483
916.432	483.4
916.832	503.4
917.232	486.4
917.632	479.4
918.032	501.8
918.432	486.6
918.833	481
919.233	487
919.634	484.6
920.035	489.8
920.436	483.2
920.837	493.2
921.238	493
921.639	492
922.019	499
922.42	494.8
922.822	505
923.224	485.2
923.625	493
924.027	492.4
924.429	510
924.81	492.4
925.212	502.4
925.615	491.6
926.017	491.2
926.42	498.6
926.801	495.4
927.204	493.4
927.607	493
928.01	505.2
928.413	490.8
928.795	474.2
929.199	492
929.602	495
930.006	485.2
930.388	489
930.792	492.6
931.196	487
931.579	517
931.983	491.6
932.388	525.2
932.771	487.4
933.176	479.8
933.58	491.2
933.964	493.6
934.369	488.6
934.774	494
935.158	491.6
935.563	486
935.947	494.8
936.353	490.6
936.759	488.8
937.143	487.2
937.549	488.2
937.934	505.8
938.34	504
938.746	493
939.131	490.8
939.538	481.6
939.923	498.6
940.33	487
940.716	497.4
941.123	498
941.508	502.6
941.916	498.4
942.302	490.6
942.709	487
943.096	482.4
943.503	493.4
943.89	495.6
944.298	486.6
944.685	509.4
945.072	494.8
945.48	499.4
945.867	487.2
946.276	487.6
946.663	511.8
947.051	502.2
947.46	496.4
947.848	495.8
948.257	490.8
948.645	491
949.033	484.6
949.443	482.4
949.831	528.6
950.22	485.6
950.63	495.2
951.018	514.2
951.407	488.8
951.796	485
952.207	500.6
952.596	502.6
952.985	478.2
953.375	520.4
953.786	489.6
954.176	486
954.566	495.4
954.956	489
955.367	483.2
955.758	512
956.148	477.2
956.539	500
956.929	485.4
957.341	479.8
957.732	488
958.123	493.8
958.515	482
958.906	489.2
959.297	491.6
959.689	488.4
960.102	482
960.494	489.6
960.886	488
961.278	486.6
961.67	507.2
962.062	516.4
962.455	483.4
962.847	482
963.24	480.4
963.633	485.2
964.026	476.6
964.419	483.8
964.812	494.2
965.206	483.4
965.599	494.2
965.993	485.2
966.386	492.2
966.78	492.4
967.174	501
967.569	484.2
967.963	480.8
968.357	479.4
968.752	479.4
969.146	486
969.541	482
969.936	478.6
970.331	486.8
970.705	484.2
971.1	486.4
971.496	492
971.892	476.8
972.287	491.8
972.683	487
973.079	488
973.454	491
973.85	485.2
974.247	493
974.643	498.6
975.04	484.4
975.415	491.4
975.812	479.4
976.209	495.2
976.607	482.4
976.982	506.4
977.38	502.4
977.778	493.6
978.175	480.8
978.552	493.8
978.95	499.8
979.348	494
979.725	523.6
980.123	485.4
980.522	487.8
980.899	483
981.298	485.2
981.697	487.2
982.075	485
982.474	487.8
982.852	487
983.251	495.8
983.651	482.2
984.029	498.6
984.429	493
984.808	481.2
985.208	485.6
985.609	484
985.987	482.6
986.388	481.6
986.768	493.4
987.168	483.8
987.548	489
987.949	498.4
988.329	490.2
988.731	475
989.111	482.6
989.491	482.4
989.893	487.4
990.273	486.6
990.676	475.6
991.057	472.6
991.459	483.6
991.84	483.2
992.221	475.8
992.624	499.6
993.006	491.8
993.388	483.6
993.791	493.4
994.173	488.6
994.576	504
994.959	479.2
995.341	486.4
995.724	484.2
996.128	485.4
996.511	486.6
996.894	484
997.298	485.6
997.681	494.2
998.065	487.4
998.448	482.2
998.854	490.8
999.237	480
999.621	491.4
1000.01	506.6
1000.39	485
1000.8	478
1001.18	488.6
1001.56	484.8
1001.95	488.8
1002.33	485
1002.72	481.6
1003.13	479.2
1003.51	481.4
1003.9	479.6
1004.28	493.6
1004.67	474.6
1005.06	484.2
1005.44	511
1005.83	477.6
1006.21	481.4
1006.6	475.6
1006.99	494
1007.37	502
1007.76	494.4
1060.12	483.8
1060.51	476.2
1060.89	492
1061.28	497.4
1061.67	494.4
1062.06	489.2
1062.45	486.2
1062.83	479.4
1063.22	502.2
1063.61	517.4
1064	494
1064.39	488.2
1064.78	486.8
1065.14	489.4
1065.53	489.8
1065.92	485.4
1066.31	481.6
1066.7	484.6
1067.09	504.8
1067.46	493.6
1067.85	489.2
1068.24	478.4
1068.63	487.6
1069.02	480.4
1069.39	493
1069.78	478.8
1070.17	488.4
1070.57	480
1070.93	482.4
1071.33	482.8
1071.72	491.6
1072.11	491.2
1072.48	470.6
1072.87	488.8
1073.26	484
1073.64	488.4
1074.03	477.6
1074.4	483.4
1074.79	486.2
1075.19	483.4
1075.56	479.4
1075.95	485
1076.34	485.8
1076.72	486
1077.11	496.8
1077.48	488.2
1077.88	491.2
1078.25	482.2
1078.64	485.6
1079.02	488.6
1079.41	492.8
1079.78	482.8
1080.18	484.4
1080.55	542.6
1080.95	485.4
1081.32	475
1081.72	482
1082.09	487.8
1082.49	479.4
1082.86	494.4
1083.24	473.2
1083.63	473.8
1084.01	482.2
1084.38	490.2
1084.78	473.4
1085.16	487.8
1085.55	497.8
1085.93	491.2
1086.31	482.6
1086.7	507
1087.08	487.4
1087.46	483
1087.83	478
1088.23	484.4
1088.61	486.6
1088.99	490
1089.36	489.4
1089.76	483
1090.14	492.8
1090.52	481.2
1090.9	477
1091.27	493.6
1091.67	504.2
1092.05	490.8
1092.43	482.2
1092.81	487.2
1093.19	486.6
1093.57	483.4
1093.95	481.8
1094.35	490.4
1094.73	498
1095.11	484.2
1095.49	478
1095.87	479.4
1096.25	498.4
1096.63	493.6
1097.01	487.2
1097.39	489.4
1097.77	491
1098.15	493.6
1098.53	485.4
1098.91	483
1099.29	482.8
1099.68	493.4
1100.06	492
1100.44	484
1100.82	485.2
1101.18	489.4
1101.56	481.2
1101.95	487.8
1102.33	488.8
1102.71	482
1103.1	478.8
1103.48	475.4
1103.86	478.2
1104.22	493.8
1104.61	485.2
1104.99	484.4
1105.38	473.6
1105.76	487.2
1106.12	481.6
1106.51	509.4
1106.89	490.2
1107.26	484
1107.64	486
1108.03	471.2
1108.41	478.4
1108.78	488.2
1109.16	475
1109.55	489.6
1109.91	472.6
1110.3	468
1110.69	492.6
1111.05	477.8
1111.44	488.8
1111.8	491.4
1112.19	486.2
1112.58	483.4
1112.94	480.8
1113.33	481.6
1113.7	482.8
1114.09	486.8
1114.45	472.6
1114.84	477
1115.21	488.8
1115.6	486.6
1115.96	493.8
1116.35	488.8
1116.72	485.4
1117.11	498.4
1117.48	481.4
1117.85	482.4
1118.24	489.6
1118.6	487.4
1118.99	487.6
1119.36	483.4
1119.73	488
1120.12	487
1120.49	474.2
1120.86	494.8
1121.25	486
1121.62	479.8
1121.99	479.8
1122.38	492.2
1122.76	478.2
1123.13	481.8
1123.5	494.4
1123.89	493.6
1124.26	481.6
1124.63	495.8
1125	487.4
1125.4	483.4
1125.77	482.4
1126.14	471.2
1126.51	485
1126.88	483.8
1127.26	478.8
1127.63	474
1128.02	481
1128.4	479.6
1128.77	483.8
1129.14	487.4
1129.52	490.6
1129.89	491.8
1130.26	480.2
1130.64	475.6
1131.01	481.2
