#lambda/nm	C1
208.295	470.8
208.67	431.6
209.045	393.8
209.419	403.6
209.794	539.6
210.169	521
210.544	622.2
210.919	528.6
211.295	527.2
211.67	529.8
212.045	529
212.421	529
212.796	561
213.172	524.2
213.547	522
213.923	521.8
214.299	534.8
214.675	533
215.051	531.2
215.427	540.4
215.803	543.6
216.179	541.4
216.555	530
216.932	535.6
217.308	535.4
217.684	527.6
218.061	546.6
218.438	534.2
218.814	536.2
219.191	541.6
219.568	522.8
219.945	529.8
220.322	535
220.699	531.4
221.076	545.8
221.453	529.4
221.83	523.4
222.208	523.4
222.585	530.6
222.962	533.4
223.34	536.8
223.717	533
224.095	525.2
224.473	534.8
224.851	528.2
225.229	527.2
225.607	548.4
225.985	525.2
226.363	536.4
226.741	533.6
227.119	525.8
227.497	539.4
227.876	530
228.254	541.6
228.633	536
229.011	538
229.39	531.2
229.769	534.2
230.148	533.6
230.527	552.8
230.905	532
231.284	541.6
231.664	524.8
232.043	547.8
232.422	542
232.801	529.6
233.181	535.6
233.56	528.4
233.94	543.4
234.319	523.2
234.699	531.6
235.079	569.8
235.458	567.4
235.838	538.8
236.218	526
236.598	528.4
236.978	528.6
237.358	530.8
237.738	534.8
238.119	540.4
238.499	526.2
238.88	532
239.26	545.2
239.641	531.8
240.021	531.8
240.402	533.8
240.783	539.4
241.163	536.8
241.544	540
241.925	531.6
242.306	545.2
242.687	531.8
243.069	528.8
243.45	533.8
243.831	526.4
244.212	530.8
244.594	558.4
244.975	541.2
245.357	540.4
245.739	533.2
246.12	533.2
246.502	544
246.884	524.4
247.266	529.2
247.648	533
248.03	547
248.412	534.2
248.794	533.6
249.176	527.4
249.559	539
249.941	524.2
250.323	526.2
250.706	529
251.089	530.6
251.471	536.6
251.854	531.2
252.237	536.2
252.62	533.6
253.002	526.8
253.385	533
253.769	545
254.152	531.4
254.535	537.8
254.918	526.4
255.301	533
255.685	535.2
256.068	524.8
256.452	542.8
256.835	541.4
257.219	531.6
257.603	534.6
257.986	521.8
258.37	529
258.754	519
259.138	527.4
259.522	540.6
259.906	528.2
260.29	522.4
260.675	518.6
261.059	532.2
261.443	522.6
261.828	533.4
262.212	532
262.597	524.8
262.981	523.8
263.366	541
263.751	539
264.136	527.4
264.521	530.6
264.906	520.2
265.291	539.6
265.676	530
266.061	533.4
266.446	548
266.831	536.2
267.217	548.6
267.602	538.6
267.987	528.6
268.373	538.8
268.759	542.6
269.144	534.2
269.53	527.6
269.916	529
270.302	521.2
270.688	537.2
271.074	533.4
271.46	539.6
271.846	559.2
272.232	532.4
272.618	524.4
273.004	538
273.391	538
273.777	541.4
274.164	541.4
274.55	549.4
274.937	533.8
275.324	524.4
275.71	540.4
276.097	544.2
276.484	525.8
276.871	541.2
277.258	537.6
277.645	521.8
278.032	533.2
278.419	530.2
278.807	535.4
279.194	526
279.581	528.8
279.969	546
280.356	540
280.744	530.2
281.131	545.4
281.519	541.6
281.907	535
282.295	524.8
282.682	534.2
283.07	532.6
283.458	535.6
283.846	538.8
284.235	539
284.623	537.6
285.011	524.8
285.399	542.8
285.788	536.6
286.176	522.8
286.565	539.8
286.953	523.6
287.342	527.4
287.731	526.2
288.119	518.2
288.508	530
288.897	535
289.286	524.6
289.675	533.2
290.064	535
290.453	534.4
290.821	536.2
291.21	539.6
291.599	529
291.989	542
292.378	533.4
292.768	548.4
293.157	535.4
293.547	539
293.936	532.8
294.326	528.6
294.716	532
295.106	530.2
295.496	535.8
295.886	539
296.276	531.2
296.666	522.6
297.056	525.8
297.446	519.2
297.836	545.6
298.227	531.2
298.617	536.6
299.008	535.4
299.398	534.8
299.789	527.6
300.179	534
300.57	543.8
300.961	526.2
301.352	537
301.742	529.8
302.133	530.6
302.524	533
302.915	523
303.307	529.2
303.698	542.4
304.089	534.6
304.48	527.4
304.872	531.2
305.263	535.8
305.655	521.2
306.046	536.6
306.438	537.4
306.829	527
307.221	539.8
307.613	546.6
308.005	539.4
308.397	538.2
308.789	546.8
309.181	552.4
309.573	543
309.965	541.4
310.357	526
310.749	539.2
311.142	530.6
311.534	521.4
311.926	535.8
312.319	535.4
312.711	523.6
313.104	538.8
313.497	523.4
313.889	552.4
314.282	545.8
314.675	551.2
315.068	531.8
315.461	540
315.854	559.6
316.247	538.6
316.64	532.2
317.033	531
317.405	542.8
317.798	526.8
318.192	534.2
318.585	530.2
318.979	527.2
319.372	531.6
319.766	525
320.16	537
320.553	540.2
320.947	545.4
321.341	536.2
321.735	530.8
322.129	521
322.523	552
322.917	520.6
323.311	545.8
323.705	538.2
324.099	538.2
324.494	548.8
324.888	543
325.282	534.8
325.677	541.8
326.071	537
326.466	538
326.861	536.6
327.255	546.2
327.65	543.4
328.045	545.8
328.44	538.4
328.835	533.2
329.23	530.8
329.625	556.4
330.02	527.6
330.415	552.4
330.81	538.6
331.206	528.6
331.601	532
331.996	533.8
332.37	545.4
332.766	530.8
333.161	554.4
333.557	529.2
333.953	529.8
334.348	754.4
334.744	535.8
335.14	526
335.536	527.6
335.932	548.6
336.328	526.8
336.724	542.2
337.12	536.6
337.516	528.8
337.913	527.8
338.309	541.2
338.705	533.6
339.102	543
339.498	530.6
339.895	548.8
340.291	517
340.688	539.8
341.085	522.6
341.481	534.6
341.878	529.4
342.275	547.8
342.672	521.8
343.069	530.8
343.466	524.2
343.842	538.8
344.239	514
344.636	528.6
345.033	527.6
345.431	525.4
345.828	528.4
346.225	527.4
346.623	559.4
347.02	528.2
347.418	540
347.816	542.6
348.213	517.6
348.611	536.6
349.009	520
349.407	538.6
349.805	520.8
350.203	524.2
350.601	537.2
350.999	522.8
351.397	577.2
351.795	530.2
352.193	530
352.57	533.4
352.969	531.4
353.367	519.4
353.766	517.2
354.164	525
354.563	533.6
354.961	524.8
355.36	524.4
355.759	526.8
356.158	519.2
356.557	518.8
356.956	519
357.355	511.6
357.754	523.4
358.153	533.2
358.552	539.2
358.951	526.6
359.35	537.8
359.75	526
360.149	515
360.527	513.2
360.926	519
361.326	525
361.726	526.6
362.125	526.2
362.525	534.4
362.925	520.4
363.325	527
363.724	529.2
364.124	525.8
364.524	516
364.924	526.2
365.324	534.4
365.725	516.4
366.125	531.8
366.525	522.6
366.904	519.6
367.304	510
367.705	538.2
368.105	539.4
368.506	538
368.906	530
369.307	523.2
369.708	533.2
370.108	508.6
370.509	531.2
370.91	517
371.311	529.2
371.712	530.8
372.113	528.6
372.514	520.2
372.894	526.6
373.295	517.8
373.696	531.8
374.097	529.8
374.499	554.2
374.9	533.8
375.301	519.6
375.703	536
376.105	519.2
376.506	523.8
376.908	525.4
377.309	525.4
377.711	526.4
378.113	530
378.493	520
378.895	516.8
379.297	527.6
379.699	515.6
380.102	522.6
380.504	519.8
380.906	521.4
381.308	541
381.71	524.8
382.113	532.2
382.515	516
382.918	523
383.299	520.2
383.701	521
384.104	536
384.507	511.6
384.909	519.2
385.312	511
385.715	518.4
386.118	521.4
386.521	514
386.924	531.6
387.327	521
387.709	516.6
388.112	515.6
388.515	520.6
388.918	522
389.322	523.8
389.725	517.6
390.129	547.6
390.532	524.8
390.936	516.8
391.339	514.8
391.743	524
392.125	516.8
392.529	526.2
392.933	532
393.337	523.2
393.74	521.8
394.144	522.2
394.548	512.2
394.953	522.6
395.357	536
395.761	521
396.144	526.4
396.548	524.8
396.952	526
397.357	521.8
397.761	517.8
398.166	521.2
398.57	517.6
398.975	518.4
399.379	525.4
399.763	562
400.168	528
400.572	518.6
400.977	520.4
401.382	538.2
401.787	537
402.192	533.4
402.597	539.2
403.002	506.2
403.386	535.4
403.791	534.8
404.197	516
404.602	526.2
405.007	525.4
405.413	521.2
405.818	531.4
406.224	516
406.608	519.6
407.014	520
407.42	534.2
407.825	513.6
408.231	529.6
408.637	526.4
409.043	536.6
409.449	519.2
409.834	516.2
410.24	517.4
410.646	529.4
411.052	521.6
411.458	529.2
411.865	530.6
412.271	531.6
412.677	525.8
413.062	523.4
413.469	516.2
413.875	541.4
414.282	532
414.689	527
415.095	532
415.502	528.8
415.888	525.8
416.294	520.4
416.701	560.2
417.108	518.8
417.515	523.8
417.923	523.8
418.33	537.8
418.715	533.8
419.123	524.4
419.53	527.6
419.937	522.6
420.345	528.2
420.752	513.4
421.16	531.4
421.546	521.2
421.953	532
422.361	519.2
422.769	529.4
423.177	520.2
423.585	550
423.992	544.8
424.379	533.4
424.787	534.4
425.195	535.6
425.603	529.4
426.011	538.4
426.419	534.4
426.806	526.6
427.214	525.8
427.623	536.2
428.031	535.4
428.44	536
428.848	536.4
429.235	544
429.644	519.8
430.053	531.6
430.461	534.4
430.87	546
431.279	535
431.666	523.4
432.075	524.8
432.484	527.6
432.893	529.2
433.302	530.6
433.711	560.4
434.099	533.8
434.508	520
434.918	516.8
435.327	533.2
435.737	523.4
436.125	530.4
436.534	530.6
436.944	526.4
437.353	528.2
437.763	542.8
438.173	523.4
438.561	527
438.971	517.8
439.381	530
439.791	525
440.201	502.8
440.589	519.6
440.999	521
441.409	525.4
441.819	513.4
442.23	529
442.619	521.6
443.029	524.6
443.439	527.2
443.85	535.6
444.26	533.2
444.649	523.4
445.06	528.6
445.471	524.4
445.881	527
446.292	540.4
446.682	538.8
447.092	511.4
447.503	565.6
447.914	519.8
448.325	519
448.715	525.2
449.126	520.2
449.537	527.8
449.948	520.4
450.338	527.2
450.75	537.4
451.161	522
451.572	532
451.984	512.8
452.374	505
452.786	518
453.197	523.8
453.609	529.8
453.999	511.6
454.411	508.4
454.823	524.6
455.235	522.6
455.647	516.4
456.037	519.2
456.449	509.6
456.862	516.4
457.274	517.2
457.665	518.2
458.077	526.2
458.489	545.2
458.902	518.4
459.293	531
459.705	517.8
460.118	518.2
460.53	522.8
460.921	513.2
461.334	519
461.747	529.8
462.16	531.4
462.551	534.8
462.964	524.8
463.377	517.2
463.79	527.8
464.182	530.8
464.595	515.2
465.008	517.8
465.421	526.6
465.813	517
466.226	523.4
466.64	519.2
467.053	559.8
467.445	528.8
467.859	536.6
468.272	530
468.686	530.4
469.078	516
469.492	511.8
469.906	514.2
470.298	528.4
470.712	512.6
471.126	537.2
471.54	502
471.933	512
472.347	515.2
472.761	512.6
473.175	510
473.568	527
473.982	514.4
474.397	512
474.79	520.4
475.204	516
475.619	519.6
476.033	511.2
476.426	507
476.841	507.6
477.256	541.4
477.649	507.2
478.064	502.8
478.479	509.2
478.872	510.8
479.287	502.4
479.702	513.8
480.118	514.2
480.511	512
480.927	516.6
481.342	516.6
481.736	518.6
482.151	511.6
482.566	518.8
482.96	518.4
483.376	520
483.792	511.2
484.186	518.2
484.602	511.6
485.017	516
485.412	518
485.827	518
486.243	517.4
486.638	530.6
487.054	521
487.47	523.6
487.865	504.6
488.281	520
488.697	514.2
489.092	510.2
489.508	505.4
489.925	521.2
490.32	507.4
490.736	516
491.153	523.8
491.548	520.6
491.964	521.8
492.381	506.2
492.776	519.6
493.193	517.4
493.61	518.8
494.006	519.2
494.422	520
494.84	504
495.235	518.8
495.652	516.4
496.069	513.6
496.465	510.6
496.883	514.6
497.3	532.8
497.696	514.4
498.113	524.6
498.509	509
498.927	505.2
499.344	500.8
499.741	510.8
500.158	525.4
500.576	523.8
500.973	518.8
501.39	511.4
501.787	505
502.205	516.6
502.623	515
503.02	505.8
503.438	513.2
503.856	510.4
504.253	516.2
504.671	518.8
505.068	512.8
505.486	512.2
505.905	522.8
506.302	508
506.72	516.8
507.118	495
507.536	510
507.955	523
508.352	506.6
508.771	534.6
509.169	521.4
509.587	506.6
510.006	518.8
510.404	500.4
510.823	512.8
511.221	510
511.64	510.4
512.038	525
512.457	509.6
512.877	514.4
513.275	514.6
513.694	511.6
514.092	514.2
514.512	512.4
514.91	518.6
515.33	517.8
515.749	513.8
516.148	511
516.568	512.4
516.966	512.2
517.386	506.6
517.785	517.6
518.205	508.6
518.603	507.6
519.024	512.4
519.444	506.4
519.843	528.4
520.263	521.2
520.662	520.4
521.082	503.6
521.481	517
521.902	516
522.301	518.8
522.722	514.2
523.121	508
523.542	515
523.963	513.6
524.362	516
524.783	515.4
525.183	517.8
525.604	521.4
526.003	506
526.425	510
526.824	522
527.246	520.4
527.646	527.2
528.067	520.8
528.467	519.4
528.888	518.4
529.289	513
529.71	514.8
530.11	515
530.532	516.6
530.932	509
531.354	515.2
531.755	543.8
532.176	517.6
532.577	510.8
532.999	510.8
533.4	515.2
533.822	519
534.223	516.2
534.645	508.2
535.046	514
535.468	515.2
535.869	521.6
536.292	511
536.693	543.2
537.115	512.6
537.516	501.2
537.939	513
538.34	518
538.742	524
539.165	507
539.566	515.2
539.989	508.4
540.391	508
540.814	514.8
541.216	517.2
541.639	509.6
542.041	514.2
542.464	510
542.866	514.4
543.268	503.6
543.691	517
544.093	515.4
544.517	528.2
544.919	509
545.343	531.2
545.745	509.8
546.147	515
546.571	511.4
546.974	503
547.398	517.4
547.8	522.2
548.224	515.4
548.627	503.4
549.03	517
549.454	505
549.857	502.8
550.281	500.4
550.684	505.4
551.087	525
551.512	513.6
551.915	520.4
552.34	510.4
552.743	502.2
553.146	511
553.571	499
553.975	523
554.399	503.8
554.803	542.6
555.207	504.8
555.632	508
556.036	515.4
556.461	508.8
556.865	507.8
557.268	497.8
557.694	513
558.098	517.2
558.502	506.8
558.927	506.2
559.332	509.2
559.736	522
560.162	517
560.566	515.8
560.992	519.4
561.396	517.2
561.801	506
562.227	511.6
562.631	507.2
563.036	508
563.462	519.8
563.867	510.4
564.272	507
564.698	520.2
565.103	509.2
565.508	524
565.935	511.2
566.34	516.8
566.745	515.4
567.172	504
567.577	531.6
567.982	523.8
568.409	518.2
568.815	505.4
569.22	514
569.626	512.4
570.053	499.8
570.459	516
570.865	511.8
571.292	520
571.698	506.4
572.104	496.8
572.531	505.4
572.937	513.8
573.343	512.2
573.75	508.4
574.177	516.4
574.583	513
574.99	506.8
575.396	517
575.824	508
576.231	511
576.637	512.6
577.065	523.8
577.472	509
577.879	504.8
578.286	524.2
578.714	500.8
579.121	505.6
579.528	511.8
579.935	512.8
580.364	515
580.771	499
581.178	508.8
581.585	514.2
582.014	520
582.421	505.4
582.829	504
583.236	513.4
583.644	510
584.073	518.6
584.481	510.8
584.889	508.4
585.296	521.6
585.726	504.4
586.134	501.6
586.542	509.4
586.95	527
587.358	499.6
587.787	506.8
588.196	507
588.604	510
589.012	508.6
589.421	505.4
589.851	506.4
590.259	503.8
590.668	507
591.076	535.8
591.485	501.6
591.894	504.6
592.324	513.4
592.733	515.4
593.142	499.8
593.551	506.8
593.96	507.6
594.369	506.4
594.8	500.6
595.209	508.4
595.618	489.2
596.028	506.4
596.437	504.4
596.847	515.6
597.256	508.6
597.687	516.8
598.097	507.6
598.507	497.2
598.917	508.6
599.327	509.4
599.736	507.6
600.146	514.2
600.556	501.4
600.988	516.6
601.398	507.4
601.808	516.2
602.219	500.6
602.629	504.6
603.039	510.6
603.45	521.2
603.86	514.6
604.271	521.8
604.703	504
605.114	507.8
605.525	506.2
605.935	511.2
606.346	522.8
606.757	508.4
607.168	510
607.579	503.8
607.99	516.2
608.402	508.4
608.813	508
609.224	500.4
609.636	498.2
610.047	506.6
610.48	511
610.892	509.8
611.303	514.2
611.715	504
612.127	503.6
612.539	510
612.95	512
613.362	501.6
613.774	494.6
614.186	501.8
614.599	503.6
615.011	515.4
615.423	506.4
615.835	508.6
616.248	491.8
616.66	514
617.073	499.6
617.485	504
617.898	515.6
618.311	507.6
618.723	501.2
619.136	529
619.549	516.2
619.962	523.8
620.375	505.6
620.788	511
621.201	499
621.614	514.2
622.028	504.4
622.441	510.4
622.854	518.6
623.268	499
623.681	508.6
624.095	508.2
624.509	514.4
624.922	512
625.336	496.4
625.728	514.6
626.142	520.2
626.556	521
626.97	510.2
627.384	498.6
627.799	509.2
628.213	526
628.627	507.4
629.041	502.2
629.456	509.4
629.87	510.4
630.285	510.4
630.699	509.8
631.093	503.8
631.507	512.8
631.922	509.6
632.337	521.6
632.752	502
633.167	501.8
633.582	508
633.997	501.8
634.412	499.8
634.806	509
635.221	502.2
635.637	509.2
636.052	494.6
636.468	504.4
636.883	525
637.299	501.2
637.715	498.4
638.109	501.4
638.525	504
638.941	514.6
639.357	505.4
639.773	514.2
640.189	498.2
640.584	509.6
641	508.6
641.416	504.2
641.832	504.4
642.249	501.6
642.665	504.8
643.06	514.6
643.477	522.4
643.894	487.2
644.31	507.2
644.727	508.8
645.123	506.2
645.54	499.2
645.957	503.6
646.374	518
646.77	498.2
647.187	527.2
647.604	500.2
648.021	490.8
648.439	501
648.835	511.8
649.252	500
649.67	499.6
650.088	501.6
650.484	501.4
650.902	507.8
651.32	508.2
651.738	500.6
652.134	508
652.552	521.4
652.971	509.8
653.389	511.2
653.786	517.8
654.204	511.2
654.622	500.6
655.019	507.8
655.438	507.8
655.857	506.2
656.275	505.4
656.673	499.4
657.091	510.8
657.51	508.2
657.908	512.8
658.327	515.4
658.746	495.2
659.144	505.2
659.563	517.4
659.982	512.2
660.38	494
660.8	508.2
661.219	515
661.617	505.6
662.037	506.2
662.457	514.2
662.855	495.8
663.275	526.6
663.695	507.4
664.094	497.2
664.514	519
664.934	501.4
665.333	506
665.753	497.8
666.152	502.6
666.572	504.4
666.993	515
667.392	495.6
667.812	499.8
668.212	497.8
668.632	510.2
669.053	493.4
669.453	506.2
669.874	505
670.273	509.8
670.694	497
671.116	507
671.515	515.2
671.937	504.4
672.337	504.6
672.758	502.6
673.158	515.8
673.58	493.6
673.98	510.2
674.402	513
674.824	498.4
675.224	498.2
675.646	496.8
676.047	502.4
676.469	506.8
676.869	506.8
677.292	505.2
677.693	500.6
678.115	497.8
678.516	506.8
678.939	518
679.34	505.6
679.762	516.2
680.164	511.2
680.586	502
680.988	505
681.411	523.2
681.812	500.4
682.236	496.2
682.637	499.4
683.061	490.2
683.462	500.8
683.864	507.6
684.288	504.4
684.69	490.4
685.114	511.6
685.516	509.8
685.94	496.6
686.342	504.2
686.766	495.8
687.168	494.6
687.571	512.2
687.995	497.6
688.398	489.6
688.822	496
689.225	514.8
689.628	512.4
690.052	508.2
690.456	501.8
690.88	498.2
691.284	494.2
691.687	506.4
692.112	494.2
692.515	495.6
692.919	505.6
693.344	503.2
693.747	498.8
694.173	498.4
694.577	507.8
694.98	502
695.406	496.6
695.81	511.6
696.214	503
696.64	502.6
697.044	506.4
697.448	509.8
697.874	493.4
698.279	495.4
698.684	496.2
699.11	499.8
699.514	498.6
699.919	497.6
700.324	496
700.75	495.8
701.156	495.4
701.561	506.4
701.987	508.8
702.393	509.2
702.798	509.2
703.203	503
703.63	500.8
704.036	505
704.442	499
704.847	492.4
705.274	497.4
705.68	502.6
706.086	506.6
706.492	493.8
706.92	501.8
707.326	509.8
707.732	493.2
708.139	498.4
708.545	492.2
708.973	490.8
709.38	493.4
709.786	489.4
710.193	510.2
710.6	508.6
711.028	498
711.435	490.8
711.842	504.4
712.249	495.4
712.656	503.6
713.064	504
713.492	496.2
713.9	495.4
714.307	501.8
714.715	502.6
715.123	504.6
715.53	507.8
715.938	505.4
716.367	500.4
716.775	493.8
717.184	496.6
717.592	499
718	509.8
718.408	533.8
718.816	538.8
719.225	499.8
719.633	506.2
720.042	496
720.472	495.6
720.881	518.2
721.29	507.4
721.699	499
722.108	506.4
722.517	502.2
722.926	500
723.335	513
723.744	500.8
724.154	500.2
724.563	504
724.973	499.6
725.382	502.4
725.792	498
726.202	492
726.612	509.8
727.022	495.2
727.432	498.8
779.813	502.8
780.223	541
780.634	501.8
781.044	495.6
781.454	499.6
781.865	509.2
782.276	501.4
782.686	509.4
783.097	499
783.508	494
783.919	497.2
784.33	507.8
784.741	507
785.152	489
785.563	484.6
785.974	484.6
786.386	510.8
786.776	490
787.188	498
787.599	501.4
788.011	512.8
788.423	506.6
788.835	501.8
789.247	491.4
789.659	486.6
790.071	498.8
790.483	526.2
790.874	491.2
791.286	503.2
791.699	502
792.111	499.6
792.524	510.8
792.937	493.4
793.349	496.6
793.741	496.6
794.154	488.6
794.567	506.8
794.98	498.4
795.393	485.6
795.785	513.4
796.198	490.8
796.612	493.2
797.026	497.8
797.439	477.6
797.831	496
798.245	488.6
798.659	493
799.073	498.8
799.487	488
799.88	490.8
800.294	498.4
800.708	494.4
801.123	505.8
801.516	512.2
801.93	487.2
802.345	483
802.76	499.2
803.153	502
803.568	507.6
803.983	505.6
804.377	501.4
804.792	487.8
805.207	498.4
805.601	498.6
806.016	527.6
806.432	492.6
806.826	523.6
807.242	510.2
807.658	505.2
808.052	495
808.468	491
808.884	497.2
809.279	497.2
809.695	508.2
810.111	509.8
810.506	500.4
810.922	515
811.339	491.8
811.734	501.4
812.151	494.8
812.546	493.6
812.963	495.2
813.38	499.4
813.776	497
814.193	515
814.589	494.2
815.006	490.6
815.402	488.8
815.82	499.6
816.237	496.2
816.633	503.4
817.051	491.4
817.448	493
817.866	487.8
818.262	509.6
818.68	489.4
819.077	491.4
819.495	499
819.892	535.6
820.311	483.4
820.708	498.2
821.127	496.6
821.524	498.2
821.943	498.2
822.34	504.2
822.759	495
823.157	495.8
823.576	512
823.974	501.8
824.393	585.2
824.791	504.6
825.189	490.4
825.609	500.2
826.007	493.8
826.427	488.6
826.826	493.6
827.246	506.8
827.644	489
828.043	506.6
828.463	495.2
828.862	500.4
829.261	502.8
829.682	486.4
830.081	502.2
830.502	490.8
830.901	500.6
831.301	491
831.722	491
832.121	489.4
832.521	496.8
832.943	498.6
833.342	494.4
833.742	498.8
834.164	491.2
834.564	485.6
834.965	495.2
835.386	496.4
835.787	491.8
836.188	492.6
836.588	496.4
837.01	498.4
837.411	495
837.812	501.2
838.213	495.2
838.636	497.6
839.037	552.6
839.438	499.8
839.84	491.6
840.263	502.2
840.664	496.4
841.066	493.6
841.468	495.8
841.891	488.2
842.293	504.6
842.695	503
843.098	507.2
843.5	490.6
843.902	499.4
844.326	494.2
844.729	494.4
845.131	496.4
845.534	493
845.937	510.4
846.34	507.2
846.764	494.6
847.167	492.4
847.571	489.4
847.974	491
848.377	494.4
848.781	528
849.184	501.2
849.588	490.2
849.992	493.4
850.396	503.6
850.821	507.4
851.225	497
851.63	488
852.034	505.8
852.438	494.8
852.843	558.6
853.247	485
853.652	484
854.057	506.8
854.462	493.8
854.867	498.8
855.272	513.4
855.677	504.8
856.082	485.4
856.487	493.8
856.893	503.4
857.298	490.4
857.704	486.8
858.11	499.6
858.516	501.2
858.922	499.8
859.328	506
859.734	491.8
860.14	498.4
860.525	497.4
860.931	486.2
861.338	495.8
861.745	498.6
862.151	502
862.558	499.6
862.965	491.4
863.372	486
863.779	491.2
864.186	515.4
864.572	493
864.98	511.4
865.387	526.6
865.795	493.4
866.203	506.8
866.61	492.4
867.018	504.4
867.405	495.4
867.813	496.8
868.221	495.8
868.63	497
869.038	495.6
869.425	525.8
869.834	496.2
870.243	485
870.652	487.2
871.039	491.4
871.448	499.4
871.857	504.4
872.266	488.4
872.654	498.4
873.064	497.2
873.473	498.6
873.883	488.4
874.271	492.8
874.681	493.6
875.091	494
875.48	501.8
875.89	504.2
876.3	488.8
876.689	492
877.1	497.4
877.51	497.4
877.9	512
878.31	481.4
878.721	517.8
879.111	490.4
879.522	492.6
879.933	493.8
880.323	481.2
880.734	492.8
881.125	494.6
881.536	489.6
881.948	484.4
882.338	494.2
882.75	497
883.141	489.8
883.553	494.6
883.944	517.8
884.356	497.4
884.769	487.4
885.16	491
885.573	488.2
885.964	488.4
886.377	495.4
886.768	486.8
887.181	495.6
887.573	484
887.987	506.2
888.378	501.6
888.792	496
889.184	532.8
889.598	491
889.99	499.2
890.383	487.6
890.797	487
891.19	506.2
891.604	482.6
891.997	490.8
892.411	491.6
892.805	488.8
893.198	492.6
893.613	476
894.006	500.8
894.421	489
894.815	495.2
895.209	485.8
895.624	527.8
896.018	509.2
896.412	482.6
896.828	489
897.222	492.8
897.617	494
898.033	511.8
898.427	493.4
898.822	489
899.239	482.6
899.634	484.8
900.029	501.4
900.424	492.4
900.841	482.8
901.236	504.6
901.632	496.4
902.027	539.8
902.445	502
902.841	496.8
903.237	495.4
903.633	505.6
904.05	496.6
904.447	499.2
904.843	502.2
905.24	491.2
905.636	486.6
906.033	491.4
906.451	499.2
906.848	488
907.246	486
907.643	489.6
908.04	502.8
908.438	508.4
908.835	500.8
909.254	484
909.652	494.4
910.05	497.4
910.448	485.2
910.846	493.8
911.244	480.8
911.643	498.4
912.041	493.8
912.44	503.6
912.839	487.2
913.237	489.4
913.636	489
914.035	493.6
914.434	495.6
914.834	491.2
915.233	500.8
915.633	488.6
916.032	488.6
916.432	494.2
916.832	500.2
917.232	489
917.632	484.8
918.032	494
918.432	496.6
918.833	482.8
919.233	484.4
919.634	482
920.035	503.6
920.436	489.6
920.837	491.4
921.238	496.8
921.639	492
922.019	493.6
922.42	497.4
922.822	492.6
923.224	491
923.625	491
924.027	491.4
924.429	506.4
924.81	492.8
925.212	501.8
925.615	497.4
926.017	496.6
926.42	492.8
926.801	493.8
927.204	493
927.607	503.8
928.01	501.6
928.413	492.6
928.795	472.6
929.199	477
929.602	486.6
930.006	482.8
930.388	479.6
930.792	494.8
931.196	487.8
931.579	522
931.983	483
932.388	525.8
932.771	481
933.176	478.2
933.58	490.6
933.964	495.2
934.369	478.6
934.774	497.6
935.158	490.8
935.563	491.2
935.947	494.8
936.353	496
936.759	489
937.143	494.2
937.549	491.6
937.934	498.4
938.34	508.6
938.746	488.6
939.131	493
939.538	482.6
939.923	493.2
940.33	486
940.716	489.4
941.123	501.6
941.508	497.4
941.916	502.2
942.302	493.6
942.709	482.6
943.096	482.2
943.503	492.8
943.89	488.8
944.298	489.8
944.685	513
945.072	492.2
945.48	496.6
945.867	491.4
946.276	486.2
946.663	502
947.051	502.2
947.46	497
947.848	495.8
948.257	487.2
948.645	487.6
949.033	482.6
949.443	487.6
949.831	527.2
950.22	486.8
950.63	487.2
951.018	510
951.407	493.2
951.796	482.2
952.207	498.6
952.596	496.6
952.985	485
953.375	531
953.786	492.2
954.176	486.2
954.566	498
954.956	486.2
955.367	493.6
955.758	507.6
956.148	481.8
956.539	495.2
956.929	485
957.341	481.6
957.732	492.8
958.123	498.4
958.515	489.6
958.906	500.2
959.297	486.2
959.689	489.6
960.102	487.4
960.494	493
960.886	490
961.278	488.2
961.67	511.2
962.062	520.6
962.455	487.6
962.847	483.4
963.24	488.2
963.633	485.4
964.026	488.2
964.419	490.2
964.812	495.2
965.206	486.6
965.599	492.8
965.993	495.8
966.386	493.2
966.78	501.4
967.174	497.2
967.569	483.4
967.963	495.2
968.357	491
968.752	486.2
969.146	479.4
969.541	485
969.936	485.2
970.331	490.2
970.705	491.2
971.1	481
971.496	497.6
971.892	488.2
972.287	486.6
972.683	488
973.079	488.2
973.454	501.2
973.85	486.6
974.247	498
974.643	509.2
975.04	496
975.415	492.8
975.812	486.6
976.209	489.6
976.607	476.6
976.982	498.6
977.38	505.4
977.778	496
978.175	483.8
978.552	492.2
978.95	493.6
979.348	495.2
979.725	519.6
980.123	491.2
980.522	494.4
980.899	486.2
981.298	491.8
981.697	488.4
982.075	486.2
982.474	492.8
982.852	479.2
983.251	485
983.651	480
984.029	498.4
984.429	493.8
984.808	479.2
985.208	494
985.609	477.4
985.987	480.8
986.388	480.8
986.768	498.2
987.168	492
987.548	499.8
987.949	498
988.329	498
988.731	485
989.111	487.4
989.491	481.2
989.893	485.4
990.273	493.2
990.676	481.2
991.057	484.2
991.459	484
991.84	484.8
992.221	480.4
992.624	498.6
993.006	494.8
993.388	491.4
993.791	494.4
994.173	497.2
994.576	520.6
994.959	484.6
995.341	485.2
995.724	497.4
996.128	481.4
996.511	493
996.894	490.6
997.298	483.2
997.681	494.4
998.065	480.2
998.448	483.2
998.854	488.8
999.237	488.2
999.621	492.8
1000.01	504.6
1000.39	487
1000.8	482.4
1001.18	494.8
1001.56	489
1001.95	495.4
1002.33	493
1002.72	482.8
1003.13	487.4
1003.51	488.6
1003.9	491
1004.28	496.8
1004.67	490.2
1005.06	480.2
1005.44	511.2
1005.83	481
1006.21	489.6
1006.6	487.8
1006.99	490.2
1007.37	494.6
1007.76	488.2
1060.12	492.6
1060.51	475.6
1060.89	499.4
1061.28	498.8
1061.67	497
1062.06	491.8
1062.45	486.2
1062.83	483.8
1063.22	497.8
1063.61	520
1064	494.6
1064.39	493.6
1064.78	487.6
1065.14	495.8
1065.53	488
1065.92	491.8
1066.31	482.4
1066.7	498.2
1067.09	494.8
1067.46	495.4
1067.85	487.6
1068.24	487.4
1068.63	496
1069.02	489.8
1069.39	499.6
1069.78	483.8
1070.17	488.6
1070.57	482
1070.93	492
1071.33	484
1071.72	495.4
1072.11	486
1072.48	485
1072.87	488
1073.26	486.6
1073.64	476.4
1074.03	481
1074.4	485.4
1074.79	482.6
1075.19	483.2
1075.56	483.2
1075.95	493.6
1076.34	482.8
1076.72	482.2
1077.11	489.8
1077.48	498.4
1077.88	488.8
1078.25	481
1078.64	493
1079.02	491.8
1079.41	495.4
1079.78	484.4
1080.18	483.8
1080.55	542.6
1080.95	478.8
1081.32	483.2
1081.72	487.2
1082.09	480.6
1082.49	480.2
1082.86	486.4
1083.24	477.4
1083.63	483
1084.01	485.8
1084.38	492.2
1084.78	484
1085.16	491.2
1085.55	497.6
1085.93	495
1086.31	487.6
1086.7	505.2
1087.08	480.8
1087.46	487.6
1087.83	478.2
1088.23	494.6
1088.61	481.8
1088.99	494.2
1089.36	484.4
1089.76	485.2
1090.14	481.6
1090.52	474.4
1090.9	480.4
1091.27	502.6
1091.67	507.4
1092.05	486.6
1092.43	482.8
1092.81	496.4
1093.19	493.4
1093.57	482
1093.95	490.8
1094.35	496.6
1094.73	495.8
1095.11	477.6
1095.49	486.6
1095.87	488.6
1096.25	501.8
1096.63	494.8
1097.01	479.2
1097.39	489.8
1097.77	491
1098.15	490.8
1098.53	488.6
1098.91	485.6
1099.29	485.6
1099.68	503.6
1100.06	490.8
1100.44	490
1100.82	484.4
1101.18	490.6
1101.56	486.4
1101.95	481.6
1102.33	484.4
1102.71	490
1103.1	477
1103.48	479.6
1103.86	478.6
1104.22	491.6
1104.61	488.6
1104.99	489.6
1105.38	481
1105.76	484.4
1106.12	480.4
1106.51	518.4
1106.89	496
1107.26	483.6
1107.64	493.2
1108.03	477
1108.41	480.2
1108.78	492.6
1109.16	487.2
1109.55	493.6
1109.91	482.6
1110.3	478.2
1110.69	492.8
1111.05	490.4
1111.44	485
1111.8	481.6
1112.19	485.8
1112.58	490
1112.94	489.2
1113.33	479
1113.7	482.8
1114.09	475.6
1114.45	491.4
1114.84	487.6
1115.21	500.2
1115.6	483.2
1115.96	487
1116.35	495.6
1116.72	479.4
1117.11	491.4
1117.48	480.2
1117.85	488.8
1118.24	495.2
1118.6	483.2
1118.99	481.6
1119.36	484.2
1119.73	485.8
1120.12	485
1120.49	476.4
1120.86	490.4
1121.25	487.8
1121.62	481
1121.99	487.8
1122.38	498.6
1122.76	488.4
1123.13	487.4
1123.5	483.6
1123.89	495.4
1124.26	474.2
1124.63	482.8
1125	484
1125.4	476
1125.77	474.2
1126.14	474.6
1126.51	481.6
1126.88	479.6
1127.26	481.6
1127.63	471.6
1128.02	479
1128.4	478.8
1128.77	485
1129.14	485.4
1129.52	489
1129.89	480.8
1130.26	479.2
1130.64	477
1131.01	477.2
