#lambda/nm	C1
208.295	461.6
208.67	437
209.045	394
209.419	401
209.794	543
210.169	523.6
210.544	627.8
210.919	539.4
211.295	528.6
211.67	532
212.045	534.4
212.421	534.4
212.796	564
213.172	521.6
213.547	530.6
213.923	527.2
214.299	533.6
214.675	535
215.051	536.4
215.427	545
215.803	548.2
216.179	535.6
216.555	527.6
216.932	547
217.308	535.8
217.684	527
218.061	544.6
218.438	532.6
218.814	525.2
219.191	541.4
219.568	528.6
219.945	529.6
220.322	532.8
220.699	533.6
221.076	535
221.453	534.6
221.83	521.4
222.208	531.4
222.585	534.4
222.962	529.8
223.34	540.6
223.717	524.2
224.095	527.8
224.473	536.8
224.851	532.4
225.229	526.4
225.607	548.2
225.985	524
226.363	528.4
226.741	543.2
227.119	535.4
227.497	542
227.876	525.4
228.254	539
228.633	542
229.011	544.2
229.39	539.6
229.769	532.2
230.148	535
230.527	542.8
230.905	531.2
231.284	541.2
231.664	524.8
232.043	542
232.422	541.2
232.801	537.4
233.181	529.6
233.56	529.4
233.94	535.4
234.319	518.2
234.699	525
235.079	562.4
235.458	558.4
235.838	548.4
236.218	536.2
236.598	516.2
236.978	524
237.358	523.2
237.738	532.8
238.119	538.6
238.499	526.8
238.88	524.6
239.26	545.6
239.641	520
240.021	526.8
240.402	533.4
240.783	533.6
241.163	526.8
241.544	529.8
241.925	531.6
242.306	539.8
242.687	527.2
243.069	528.4
243.45	535.6
243.831	526.6
244.212	526.4
244.594	558.6
244.975	534.8
245.357	542.4
245.739	531
246.12	531.2
246.502	546.6
246.884	524.6
247.266	530.2
247.648	532.8
248.03	551.8
248.412	530
248.794	537.6
249.176	522
249.559	539.4
249.941	525.4
250.323	525
250.706	529.6
251.089	527.8
251.471	537.6
251.854	531.6
252.237	527.8
252.62	543
253.002	530.2
253.385	528.4
253.769	547.4
254.152	534.8
254.535	536.8
254.918	529.4
255.301	528
255.685	535
256.068	523.6
256.452	553.6
256.835	536.2
257.219	537
257.603	541
257.986	520.2
258.37	539.6
258.754	527.4
259.138	543.6
259.522	534.8
259.906	527.8
260.29	527.6
260.675	529.6
261.059	532.6
261.443	531.6
261.828	549.2
262.212	535
262.597	529.8
262.981	528.4
263.366	528.4
263.751	534.4
264.136	533.4
264.521	530.6
264.906	529.2
265.291	545.2
265.676	537.8
266.061	531.6
266.446	554.2
266.831	538.2
267.217	548.4
267.602	538.6
267.987	535.6
268.373	534
268.759	540.6
269.144	539
269.53	532.2
269.916	527.4
270.302	538.8
270.688	540
271.074	528.6
271.46	536.6
271.846	554
272.232	525
272.618	518.6
273.004	532.6
273.391	542.6
273.777	536.4
274.164	528.4
274.55	535.8
274.937	529.2
275.324	531.8
275.71	533.8
276.097	532.4
276.484	527.2
276.871	536
277.258	535.4
277.645	522.2
278.032	534.2
278.419	531.2
278.807	534.6
279.194	524.2
279.581	527.8
279.969	535.8
280.356	524.6
280.744	537.2
281.131	555.6
281.519	539.6
281.907	531
282.295	535.2
282.682	538.8
283.07	529.8
283.458	542.2
283.846	544.8
284.235	545.8
284.623	538
285.011	523.4
285.399	536
285.788	524.8
286.176	523.4
286.565	543.4
286.953	534.6
287.342	526.2
287.731	523.8
288.119	523.2
288.508	527.8
288.897	529.6
289.286	524.2
289.675	533.2
290.064	543.4
290.453	525.8
290.821	533.8
291.21	553.2
291.599	528.4
291.989	537
292.378	543.4
292.768	545.4
293.157	541.8
293.547	542.6
293.936	535.2
294.326	533.4
294.716	538.6
295.106	525.2
295.496	543.4
295.886	536.8
296.276	534.6
296.666	517
297.056	529.2
297.446	521.8
297.836	534.2
298.227	532
298.617	535.6
299.008	548.2
299.398	525
299.789	524.4
300.179	534.2
300.57	541.2
300.961	532.8
301.352	533.6
301.742	538.6
302.133	539.8
302.524	529.6
302.915	531.4
303.307	527.6
303.698	540.2
304.089	541.2
304.48	532.2
304.872	536.6
305.263	533.6
305.655	531
306.046	538.2
306.438	540.4
306.829	528.4
307.221	539.8
307.613	541
308.005	540
308.397	547.8
308.789	548.6
309.181	548.4
309.573	546.8
309.965	552.4
310.357	537.6
310.749	540.8
311.142	530
311.534	526.2
311.926	539
312.319	532.2
312.711	525.2
313.104	547.6
313.497	528.6
313.889	562
314.282	541.6
314.675	555
315.068	533
315.461	536.8
315.854	555
316.247	540.8
316.64	529.8
317.033	533
317.405	539
317.798	529.6
318.192	525.6
318.585	523
318.979	535.4
319.372	523.2
319.766	531
320.16	539
320.553	537.2
320.947	550
321.341	532.6
321.735	530.4
322.129	523.8
322.523	555.6
322.917	531.2
323.311	536
323.705	542.4
324.099	541.6
324.494	544
324.888	546.4
325.282	539.8
325.677	544
326.071	539.8
326.466	545.4
326.861	537.8
327.255	538.8
327.65	547.4
328.045	548.2
328.44	528.8
328.835	540.8
329.23	529.2
329.625	551.4
330.02	534.2
330.415	542.2
330.81	539.2
331.206	534.6
331.601	528
331.996	536.8
332.37	548.6
332.766	525
333.161	540.8
333.557	526.6
333.953	538.4
334.348	755.4
334.744	538.2
335.14	531.6
335.536	526.4
335.932	545
336.328	537
336.724	535.6
337.12	534.4
337.516	536.2
337.913	529
338.309	543.4
338.705	535.6
339.102	543.6
339.498	529
339.895	544.6
340.291	524
340.688	538.6
341.085	523.6
341.481	535
341.878	529
342.275	550.6
342.672	521.6
343.069	528.4
343.466	526.2
343.842	538.2
344.239	533
344.636	533.4
345.033	522.4
345.431	525.6
345.828	523.8
346.225	523.4
346.623	559.8
347.02	531
347.418	532.6
347.816	537
348.213	526.4
348.611	531
349.009	520.6
349.407	541
349.805	525.6
350.203	520.6
350.601	535
350.999	528.2
351.397	574
351.795	525.8
352.193	538.2
352.57	532
352.969	538.2
353.367	522
353.766	523.8
354.164	525
354.563	533.4
354.961	528
355.36	521.6
355.759	529.6
356.158	517
356.557	525.2
356.956	527.2
357.355	523.2
357.754	532.2
358.153	533.6
358.552	547.8
358.951	532
359.35	536.6
359.75	521
360.149	519
360.527	510.4
360.926	513.6
361.326	529
361.726	531.4
362.125	523.4
362.525	530.2
362.925	523
363.325	529.2
363.724	532.6
364.124	530.2
364.524	516.4
364.924	528.4
365.324	535
365.725	517
366.125	522.8
366.525	522.8
366.904	527
367.304	513
367.705	537
368.105	535.6
368.506	528.2
368.906	526.6
369.307	518.8
369.708	522.4
370.108	524
370.509	529.8
370.91	518.4
371.311	523
371.712	530.4
372.113	525.2
372.514	515.6
372.894	525.4
373.295	522.2
373.696	533
374.097	530.4
374.499	555
374.9	530.2
375.301	515.6
375.703	525.4
376.105	521.4
376.506	525.4
376.908	523.2
377.309	531
377.711	524
378.113	514
378.493	529.6
378.895	521.8
379.297	531.4
379.699	515.8
380.102	524
380.504	517.8
380.906	514.4
381.308	544.2
381.71	523.8
382.113	538.2
382.515	516.4
382.918	520.8
383.299	510.8
383.701	531
384.104	530.2
384.507	511.2
384.909	517.2
385.312	519.8
385.715	512.6
386.118	519.6
386.521	514.6
386.924	535.6
387.327	520
387.709	522.4
388.112	506.8
388.515	518.4
388.918	523.6
389.322	536.8
389.725	509.6
390.129	542
390.532	525.6
390.936	523.2
391.339	513.6
391.743	527.6
392.125	516.6
392.529	528.2
392.933	525.6
393.337	521.4
393.74	524.4
394.144	524.2
394.548	520.6
394.953	519
395.357	527.8
395.761	521.6
396.144	525
396.548	518.2
396.952	519.6
397.357	528.4
397.761	522.2
398.166	525.8
398.57	527.2
398.975	517
399.379	528.8
399.763	555.6
400.168	520.4
400.572	527.8
400.977	518.6
401.382	537.6
401.787	534.8
402.192	536.4
402.597	533.6
403.002	510.4
403.386	542.6
403.791	530.4
404.197	519.4
404.602	527.8
405.007	520.6
405.413	517.8
405.818	527
406.224	521.2
406.608	517
407.014	519.8
407.42	538.2
407.825	519
408.231	524.6
408.637	523.8
409.043	529.4
409.449	517.4
409.834	517.8
410.24	524.8
410.646	531
411.052	531.2
411.458	528.4
411.865	533.8
412.271	533.6
412.677	527
413.062	526.4
413.469	517.4
413.875	542.4
414.282	533.2
414.689	527.2
415.095	530.4
415.502	517.4
415.888	528.8
416.294	513.6
416.701	551
417.108	518
417.515	527.2
417.923	523.2
418.33	537.8
418.715	532.2
419.123	519.4
419.53	521.8
419.937	522
420.345	538.2
420.752	521
421.16	536.2
421.546	531.6
421.953	532.4
422.361	516.6
422.769	524.4
423.177	526.6
423.585	536.4
423.992	538.2
424.379	534
424.787	529.4
425.195	542.4
425.603	527
426.011	535.6
426.419	535
426.806	523.6
427.214	526.6
427.623	538
428.031	544.8
428.44	524.8
428.848	539.6
429.235	540.2
429.644	531
430.053	527.8
430.461	537.4
430.87	549.2
431.279	525.2
431.666	516.8
432.075	528.6
432.484	531.4
432.893	526.4
433.302	533.2
433.711	564.4
434.099	536
434.508	523.4
434.918	513.8
435.327	525.8
435.737	524.6
436.125	528.4
436.534	528.6
436.944	529
437.353	529.4
437.763	537.4
438.173	523.2
438.561	535.8
438.971	512
439.381	525.2
439.791	522
440.201	511.8
440.589	521
440.999	528.6
441.409	522.8
441.819	519.6
442.23	527.8
442.619	536
443.029	525.2
443.439	530.8
443.85	533.4
444.26	537.6
444.649	534
445.06	521
445.471	525
445.881	525.4
446.292	533.6
446.682	541.6
447.092	515.2
447.503	565
447.914	524.6
448.325	520.6
448.715	522.8
449.126	521.4
449.537	522.8
449.948	518.8
450.338	515.8
450.75	530.2
451.161	525.6
451.572	524
451.984	520.2
452.374	510.4
452.786	518
453.197	528.4
453.609	531.8
453.999	508.6
454.411	519.4
454.823	526.4
455.235	530.8
455.647	521.6
456.037	528.2
456.449	517.6
456.862	523
457.274	527.6
457.665	516
458.077	527.6
458.489	544.4
458.902	513.8
459.293	526
459.705	521.4
460.118	510.8
460.53	519.2
460.921	520.6
461.334	519.4
461.747	528.6
462.16	529.2
462.551	530.6
462.964	530
463.377	515.2
463.79	519.4
464.182	528.8
464.595	511.4
465.008	524.2
465.421	528.2
465.813	513.8
466.226	523.2
466.64	525.2
467.053	563.8
467.445	532.4
467.859	534.2
468.272	520.4
468.686	531.6
469.078	519.4
469.492	513
469.906	518.4
470.298	520.4
470.712	516
471.126	543.2
471.54	510.4
471.933	508.6
472.347	520.8
472.761	515.2
473.175	513.8
473.568	513.2
473.982	514.2
474.397	518.4
474.79	522
475.204	525.8
475.619	519.8
476.033	526.4
476.426	514.8
476.841	519
477.256	540.6
477.649	516
478.064	509.4
478.479	506.2
478.872	510.8
479.287	505.6
479.702	506.4
480.118	503.4
480.511	519.6
480.927	510.6
481.342	515.2
481.736	515.8
482.151	509.2
482.566	523.6
482.96	512.2
483.376	524.8
483.792	519.2
484.186	516.8
484.602	510.6
485.017	520.4
485.412	511.4
485.827	518
486.243	509
486.638	531.8
487.054	522.2
487.47	521.4
487.865	511.8
488.281	514.2
488.697	511.2
489.092	508.8
489.508	509
489.925	520.6
490.32	505
490.736	520.4
491.153	515.8
491.548	513.4
491.964	520.6
492.381	511.4
492.776	515.4
493.193	517.8
493.61	520.6
494.006	506
494.422	522.6
494.84	518.8
495.235	523.8
495.652	510.8
496.069	510.6
496.465	508
496.883	510.8
497.3	530.6
497.696	511.8
498.113	522.2
498.509	511
498.927	503.4
499.344	505.4
499.741	504.8
500.158	518
500.576	523.8
500.973	520.6
501.39	509.8
501.787	508.2
502.205	520.8
502.623	509.8
503.02	508
503.438	508.6
503.856	515.4
504.253	517
504.671	514.8
505.068	515
505.486	518.4
505.905	528.6
506.302	515
506.72	519.6
507.118	500
507.536	507.2
507.955	508.2
508.352	516.6
508.771	518.8
509.169	518.8
509.587	509.8
510.006	516
510.404	509.4
510.823	509.8
511.221	513.8
511.64	511.6
512.038	518.2
512.457	516
512.877	517.4
513.275	510
513.694	506.6
514.092	513.6
514.512	517.8
514.91	520.8
515.33	509.6
515.749	517
516.148	519.8
516.568	511.4
516.966	511.8
517.386	509
517.785	517.4
518.205	507.4
518.603	510.2
519.024	516.4
519.444	513.8
519.843	526.6
520.263	520.4
520.662	513.6
521.082	507
521.481	519.6
521.902	510.8
522.301	512
522.722	514.4
523.121	518.6
523.542	518
523.963	508.4
524.362	516.4
524.783	517.8
525.183	513
525.604	511.8
526.003	503.6
526.425	510.4
526.824	518
527.246	518.2
527.646	522.8
528.067	517.2
528.467	510.2
528.888	521.2
529.289	516.2
529.71	514.2
530.11	507.8
530.532	514.8
530.932	510
531.354	509.6
531.755	535.4
532.176	518
532.577	516.4
532.999	510.2
533.4	505.8
533.822	523.2
534.223	507.8
534.645	511.8
535.046	514.2
535.468	509.8
535.869	520.6
536.292	514
536.693	540.8
537.115	512.6
537.516	519.4
537.939	512.8
538.34	524.4
538.742	524
539.165	519.4
539.566	520.6
539.989	508
540.391	511.2
540.814	514
541.216	516
541.639	509.8
542.041	525
542.464	507.4
542.866	511
543.268	504.4
543.691	507.8
544.093	516.2
544.517	531
544.919	510.6
545.343	526.6
545.745	503.2
546.147	510.4
546.571	508.4
546.974	512
547.398	507.2
547.8	519
548.224	507
548.627	500.6
549.03	513
549.454	506.2
549.857	509.4
550.281	508.8
550.684	509.2
551.087	515.4
551.512	513.4
551.915	516
552.34	512
552.743	503.6
553.146	510.2
553.571	509.6
553.975	518.8
554.399	500
554.803	550.2
555.207	515
555.632	512.4
556.036	509.8
556.461	505.4
556.865	516.6
557.268	506.2
557.694	506.4
558.098	510.8
558.502	515
558.927	504.6
559.332	509.6
559.736	503.4
560.162	520.6
560.566	508.8
560.992	509.8
561.396	507.6
561.801	511
562.227	511.6
562.631	512
563.036	503.6
563.462	511.8
563.867	512.4
564.272	502
564.698	517.2
565.103	496.4
565.508	526.4
565.935	509.6
566.34	511.2
566.745	521.6
567.172	517.2
567.577	526.4
567.982	518.4
568.409	511
568.815	504.2
569.22	507.2
569.626	520.2
570.053	505.6
570.459	512.8
570.865	519.4
571.292	512.6
571.698	512.6
572.104	502.4
572.531	510
572.937	517.8
573.343	512
573.75	507
574.177	517.2
574.583	514.6
574.99	509
575.396	516.4
575.824	505.6
576.231	511.4
576.637	503.8
577.065	530.8
577.472	507.2
577.879	505.6
578.286	510.8
578.714	499.8
579.121	506.6
579.528	512
579.935	509.6
580.364	503
580.771	503
581.178	499.8
581.585	508.6
582.014	516.2
582.421	506.6
582.829	508.8
583.236	519
583.644	507.2
584.073	506.8
584.481	500.8
584.889	511.6
585.296	514.8
585.726	508
586.134	500.8
586.542	502.8
586.95	526.8
587.358	498.6
587.787	506
588.196	491.4
588.604	507.6
589.012	506.6
589.421	499.2
589.851	501.8
590.259	504
590.668	506.4
591.076	538.2
591.485	500.6
591.894	510.4
592.324	521.6
592.733	520.8
593.142	507.2
593.551	502.2
593.96	513.4
594.369	499
594.8	495.4
595.209	505.8
595.618	500.6
596.028	504.8
596.437	494.4
596.847	503.2
597.256	504.4
597.687	515.6
598.097	507.8
598.507	506.2
598.917	509.2
599.327	507.2
599.736	506.4
600.146	523.4
600.556	513.6
600.988	514.6
601.398	503.4
601.808	524.4
602.219	503.2
602.629	512.2
603.039	518
603.45	526.6
603.86	514.4
604.271	518.8
604.703	507.6
605.114	507.4
605.525	512.6
605.935	516
606.346	525.8
606.757	513.4
607.168	505.8
607.579	503.6
607.99	522
608.402	504.6
608.813	505
609.224	510.8
609.636	496.8
610.047	504.8
610.48	517.2
610.892	508.8
611.303	509
611.715	510.6
612.127	505
612.539	507.2
612.95	511
613.362	497
613.774	495.4
614.186	505.8
614.599	505
615.011	514.4
615.423	510.4
615.835	507.4
616.248	497.8
616.66	512.8
617.073	502.4
617.485	508.8
617.898	510.4
618.311	511.6
618.723	508.6
619.136	537
619.549	516
619.962	527.4
620.375	502.4
620.788	507.8
621.201	502.2
621.614	509
622.028	506
622.441	507
622.854	511.8
623.268	500.4
623.681	516.2
624.095	508.4
624.509	516.8
624.922	512.6
625.336	495.6
625.728	508.8
626.142	514
626.556	515.6
626.97	518
627.384	507
627.799	511.4
628.213	522.8
628.627	510
629.041	502.2
629.456	499.2
629.87	506.4
630.285	518.8
630.699	523
631.093	505
631.507	512.4
631.922	507.2
632.337	527.2
632.752	500.6
633.167	510.4
633.582	509
633.997	507
634.412	499.2
634.806	510
635.221	500.6
635.637	513.4
636.052	498
636.468	507.4
636.883	525.4
637.299	507.4
637.715	497.6
638.109	506.2
638.525	498
638.941	519.8
639.357	511.6
639.773	517.2
640.189	496.8
640.584	506.2
641	509.8
641.416	497.2
641.832	496.8
642.249	504.2
642.665	509.4
643.06	507.8
643.477	511
643.894	485.8
644.31	498.2
644.727	504
645.123	501.4
645.54	505.8
645.957	504.4
646.374	517
646.77	504.8
647.187	529.4
647.604	507.2
648.021	498.2
648.439	505.8
648.835	506
649.252	507.2
649.67	503.8
650.088	504.8
650.484	517.6
650.902	512.2
651.32	513
651.738	502.2
652.134	507.2
652.552	526.8
652.971	512.4
653.389	503
653.786	512.8
654.204	511.2
654.622	495.6
655.019	508.4
655.438	502.6
655.857	503.6
656.275	510.8
656.673	499.2
657.091	512.8
657.51	502.8
657.908	511.8
658.327	516
658.746	497.6
659.144	510
659.563	515.4
659.982	502.8
660.38	496.4
660.8	510.4
661.219	520
661.617	507.8
662.037	498.8
662.457	514.2
662.855	500
663.275	528.4
663.695	506.2
664.094	493.8
664.514	510.8
664.934	500.6
665.333	516.2
665.753	500.4
666.152	493.2
666.572	499.6
666.993	512
667.392	501
667.812	506.4
668.212	497
668.632	506.8
669.053	501.6
669.453	509.8
669.874	506
670.273	507.6
670.694	500.6
671.116	509.4
671.515	517.4
671.937	502.6
672.337	500.8
672.758	500.4
673.158	510.6
673.58	493
673.98	502.4
674.402	511
674.824	493.4
675.224	493.8
675.646	493.2
676.047	495.4
676.469	500.8
676.869	514.4
677.292	502.6
677.693	500
678.115	497
678.516	514.6
678.939	504.8
679.34	504.4
679.762	519.6
680.164	510.8
680.586	495.8
680.988	509.2
681.411	520.4
681.812	502.6
682.236	494.8
682.637	493
683.061	493
683.462	509.6
683.864	505.6
684.288	508.6
684.69	499.6
685.114	508.4
685.516	500.6
685.94	492.6
686.342	506.4
686.766	498.6
687.168	503.6
687.571	515.4
687.995	509.2
688.398	495.8
688.822	495.8
689.225	516.2
689.628	523
690.052	497.2
690.456	499.2
690.88	505.4
691.284	494.8
691.687	507.8
692.112	493
692.515	499.8
692.919	496.8
693.344	502.4
693.747	501.8
694.173	492.6
694.577	507.4
694.98	505.8
695.406	497.4
695.81	500.6
696.214	505.6
696.64	505
697.044	502.6
697.448	512
697.874	502
698.279	504.2
698.684	497.6
699.11	498.2
699.514	505.4
699.919	496.8
700.324	490.2
700.75	499.4
701.156	503.2
701.561	511
701.987	507.6
702.393	505.2
702.798	511.4
703.203	495.2
703.63	498.4
704.036	498.8
704.442	498
704.847	490
705.274	500.6
705.68	499.2
706.086	510.2
706.492	494.8
706.92	504.6
707.326	515.8
707.732	494.6
708.139	486.8
708.545	502
708.973	496.2
709.38	500.4
709.786	494.8
710.193	519.6
710.6	512.8
711.028	499.2
711.435	501
711.842	502
712.249	491.4
712.656	498.8
713.064	508
713.492	497.6
713.9	497.4
714.307	503.4
714.715	504.4
715.123	500
715.53	506.6
715.938	509
716.367	499
716.775	495.8
717.184	501.8
717.592	502.4
718	505.8
718.408	523.2
718.816	531
719.225	497.8
719.633	498.6
720.042	489.8
720.472	500
720.881	510.2
721.29	494
721.699	498
722.108	503.6
722.517	500.6
722.926	501.6
723.335	501.2
723.744	498.8
724.154	504.8
724.563	498.2
724.973	498.4
725.382	501.8
725.792	495.8
726.202	491.8
726.612	506
727.022	498
727.432	496.4
779.813	499.6
780.223	534.2
780.634	498.6
781.044	492.2
781.454	494.4
781.865	509
782.276	492.2
782.686	515
783.097	493.6
783.508	499.8
783.919	497.2
784.33	513.2
784.741	514.2
785.152	496.8
785.563	490
785.974	497
786.386	512.4
786.776	495
787.188	498
787.599	498
788.011	502.2
788.423	496.2
788.835	495.2
789.247	495.6
789.659	498.4
790.071	494.6
790.483	530.2
790.874	494.4
791.286	504.4
791.699	496.4
792.111	494.6
792.524	495.8
792.937	491.2
793.349	487.4
793.741	497.6
794.154	496
794.567	507.6
794.98	502.4
795.393	490.8
795.785	502.4
796.198	484.4
796.612	494
797.026	497.2
797.439	486.2
797.831	500.2
798.245	487.6
798.659	494
799.073	493.8
799.487	489.8
799.88	490.6
800.294	503
800.708	503
801.123	497.8
801.516	509.6
801.93	494.8
802.345	483.6
802.76	495.4
803.153	508.2
803.568	510
803.983	505.2
804.377	507.2
804.792	488
805.207	488.2
805.601	493.8
806.016	523.2
806.432	491.2
806.826	517.2
807.242	505.8
807.658	502.6
808.052	490
808.468	491.8
808.884	489.2
809.279	498.2
809.695	505
810.111	514.2
810.506	500
810.922	508.6
811.339	503.8
811.734	496.8
812.151	491.2
812.546	494.8
812.963	498.4
813.38	496
813.776	492.6
814.193	515.8
814.589	489.6
815.006	496.2
815.402	496.2
815.82	497.6
816.237	495.4
816.633	498.8
817.051	490
817.448	498.4
817.866	491.4
818.262	506.8
818.68	494.4
819.077	500.8
819.495	496
819.892	531.2
820.311	496.2
820.708	496.8
821.127	492.6
821.524	509.8
821.943	488.2
822.34	510.6
822.759	497.2
823.157	494
823.576	507
823.974	505.8
824.393	584
824.791	495
825.189	492
825.609	497.2
826.007	495.2
826.427	482
826.826	497.8
827.246	500
827.644	481.4
828.043	506.4
828.463	491.6
828.862	502.4
829.261	495.4
829.682	480.2
830.081	500
830.502	496.8
830.901	492.4
831.301	489.2
831.722	480.8
832.121	495
832.521	492.2
832.943	496.2
833.342	492
833.742	487.6
834.164	487.8
834.564	496
834.965	488.8
835.386	492.8
835.787	504.2
836.188	489.4
836.588	496
837.01	491.4
837.411	489.6
837.812	505
838.213	499.6
838.636	489.6
839.037	552.4
839.438	498.2
839.84	502
840.263	501.2
840.664	491.4
841.066	493
841.468	499.2
841.891	498.8
842.293	500.8
842.695	496
843.098	509.6
843.5	495
843.902	496.8
844.326	500.8
844.729	490
845.131	503.8
845.534	498.6
845.937	500.6
846.34	510.8
846.764	496.2
847.167	502.8
847.571	489.8
847.974	505
848.377	503.4
848.781	532.6
849.184	510.6
849.588	493.6
849.992	494
850.396	487.2
850.821	513.4
851.225	503
851.63	492.4
852.034	502.8
852.438	488.6
852.843	553
853.247	492.2
853.652	497
854.057	503.8
854.462	493.4
854.867	493.6
855.272	518
855.677	502.6
856.082	493.6
856.487	493
856.893	499.8
857.298	498.2
857.704	486
858.11	497.2
858.516	496.2
858.922	495.8
859.328	505
859.734	496.8
860.14	502
860.525	501
860.931	495.4
861.338	491.2
861.745	502.2
862.151	500.4
862.558	501.2
862.965	496.2
863.372	492
863.779	499.4
864.186	511.4
864.572	497.6
864.98	511.6
865.387	520.6
865.795	487
866.203	496.8
866.61	497.6
867.018	496.8
867.405	501.2
867.813	491.2
868.221	496.4
868.63	482.6
869.038	499.8
869.425	520
869.834	499.4
870.243	493.8
870.652	495.2
871.039	491
871.448	492.6
871.857	498.8
872.266	499.8
872.654	503.8
873.064	497.8
873.473	501.8
873.883	493.4
874.271	495.2
874.681	503.8
875.091	493.2
875.48	499.8
875.89	507.6
876.3	485.4
876.689	487.6
877.1	498
877.51	494
877.9	515
878.31	485
878.721	517.8
879.111	500
879.522	493
879.933	483.6
880.323	483.4
880.734	484.4
881.125	493.2
881.536	495.8
881.948	491.4
882.338	493.6
882.75	500.6
883.141	491.2
883.553	499.8
883.944	513.6
884.356	502.4
884.769	481
885.16	487.2
885.573	498
885.964	492.4
886.377	494.2
886.768	480
887.181	491.6
887.573	489
887.987	497
888.378	506.8
888.792	497.4
889.184	528.8
889.598	499
889.99	494
890.383	488.6
890.797	483.8
891.19	503
891.604	488.6
891.997	485.2
892.411	480.8
892.805	486.4
893.198	488.4
893.613	473
894.006	490.8
894.421	486.8
894.815	495.6
895.209	488.2
895.624	526.2
896.018	509.8
896.412	497.2
896.828	483.6
897.222	496.2
897.617	490.6
898.033	508.2
898.427	485
898.822	499.8
899.239	488.4
899.634	487.8
900.029	512.4
900.424	482.8
900.841	483.6
901.236	494.4
901.632	495
902.027	538
902.445	496.6
902.841	496.6
903.237	490.8
903.633	503.4
904.05	499
904.447	496.6
904.843	503.4
905.24	491.4
905.636	492.4
906.033	496.4
906.451	503.2
906.848	484.4
907.246	497.4
907.643	495.4
908.04	495.4
908.438	503.8
908.835	499.4
909.254	492.4
909.652	496.6
910.05	490.8
910.448	485.6
910.846	487.8
911.244	485.2
911.643	500.2
912.041	496.2
912.44	503.8
912.839	487.4
913.237	489.4
913.636	482
914.035	494.4
914.434	488.6
914.834	494.6
915.233	499.4
915.633	483.6
916.032	491.2
916.432	488.2
916.832	503.4
917.232	496.2
917.632	486.6
918.032	493.4
918.432	498.2
918.833	494
919.233	496.4
919.634	483
920.035	497.6
920.436	478.6
920.837	499
921.238	487.8
921.639	488.6
922.019	493.6
922.42	492
922.822	499.8
923.224	489.4
923.625	489.4
924.027	489.4
924.429	507.2
924.81	494.8
925.212	494.4
925.615	491
926.017	488.2
926.42	503.8
926.801	490.8
927.204	490.6
927.607	491.2
928.01	501.8
928.413	494.8
928.795	484.4
929.199	490.4
929.602	485.2
930.006	480.8
930.388	485.8
930.792	489.6
931.196	487
931.579	515.2
931.983	481.8
932.388	528.2
932.771	495.4
933.176	488.2
933.58	498
933.964	502
934.369	485.6
934.774	497.6
935.158	493.2
935.563	494
935.947	492
936.353	496
936.759	491.8
937.143	490
937.549	487.6
937.934	494.2
938.34	509.6
938.746	487
939.131	493.6
939.538	483.2
939.923	491.8
940.33	483.4
940.716	493.2
941.123	492.2
941.508	501
941.916	498.2
942.302	496.2
942.709	488.6
943.096	490.8
943.503	492.2
943.89	486.6
944.298	486
944.685	514.8
945.072	483.6
945.48	498.2
945.867	491.6
946.276	485.4
946.663	507.8
947.051	506.2
947.46	509.8
947.848	492.2
948.257	488.8
948.645	493
949.033	487.8
949.443	488.2
949.831	519.8
950.22	482.8
950.63	497
951.018	515.8
951.407	493.6
951.796	481.6
952.207	496.8
952.596	501
952.985	488.8
953.375	528.4
953.786	491.8
954.176	481.4
954.566	495.4
954.956	482.8
955.367	493
955.758	504.4
956.148	483.4
956.539	495.8
956.929	483.4
957.341	480.6
957.732	484
958.123	486.6
958.515	484.6
958.906	488.2
959.297	481.2
959.689	483.4
960.102	487
960.494	491.4
960.886	483.2
961.278	485.2
961.67	506
962.062	520.6
962.455	489
962.847	473.4
963.24	488.4
963.633	485.4
964.026	483.4
964.419	487.4
964.812	500.4
965.206	489.2
965.599	497.8
965.993	497.6
966.386	488.4
966.78	499
967.174	496
967.569	482.2
967.963	487.2
968.357	490
968.752	478.2
969.146	487.4
969.541	486
969.936	481
970.331	492.6
970.705	486.6
971.1	482.8
971.496	489.6
971.892	483.2
972.287	484.8
972.683	489.8
973.079	484.4
973.454	500
973.85	491
974.247	499.8
974.643	511.4
975.04	492
975.415	490
975.812	484
976.209	498.2
976.607	485
976.982	496.2
977.38	505.2
977.778	493.2
978.175	478.2
978.552	504.6
978.95	491.8
979.348	495.8
979.725	529.2
980.123	489.6
980.522	488.4
980.899	486.6
981.298	482.4
981.697	489.8
982.075	483.4
982.474	490.8
982.852	482.6
983.251	487
983.651	483.6
984.029	491.8
984.429	492
984.808	478.6
985.208	485
985.609	479.6
985.987	487.8
986.388	486.8
986.768	492.2
987.168	493.2
987.548	495.2
987.949	495.2
988.329	494.2
988.731	482.2
989.111	484.2
989.491	485
989.893	480.4
990.273	497
990.676	485.6
991.057	487.2
991.459	488.2
991.84	489.8
992.221	479.2
992.624	502.2
993.006	493.4
993.388	478.6
993.791	489.2
994.173	493.8
994.576	515.6
994.959	477.2
995.341	478.4
995.724	489
996.128	487.4
996.511	488.6
996.894	483
997.298	484.2
997.681	492
998.065	490.4
998.448	491.8
998.854	493.2
999.237	481.4
999.621	496.8
1000.01	506
1000.39	484.6
1000.8	481.4
1001.18	495.4
1001.56	499.6
1001.95	500.4
1002.33	492.2
1002.72	487.4
1003.13	488.4
1003.51	485
1003.9	486
1004.28	497.4
1004.67	487
1005.06	484.8
1005.44	516.6
1005.83	478.4
1006.21	489.8
1006.6	478.6
1006.99	501
1007.37	492.2
1007.76	491.2
1060.12	478
1060.51	489.2
1060.89	492.8
1061.28	491.2
1061.67	494
1062.06	492.2
1062.45	489.4
1062.83	483
1063.22	489.6
1063.61	520.4
1064	485.8
1064.39	492
1064.78	489.4
1065.14	492.8
1065.53	489.6
1065.92	478.2
1066.31	473.6
1066.7	493.4
1067.09	499.4
1067.46	491.6
1067.85	486.8
1068.24	496.2
1068.63	495.4
1069.02	488
1069.39	489.6
1069.78	487.4
1070.17	481.8
1070.57	476.2
1070.93	486.6
1071.33	477.8
1071.72	482.8
1072.11	485.8
1072.48	483.4
1072.87	494.2
1073.26	486.2
1073.64	484.6
1074.03	476.4
1074.4	480.8
1074.79	485.6
1075.19	492.6
1075.56	490.8
1075.95	482.4
1076.34	488.6
1076.72	494.2
1077.11	493.6
1077.48	504.2
1077.88	490.6
1078.25	491.6
1078.64	495.8
1079.02	494.6
1079.41	492.2
1079.78	488.8
1080.18	482.6
1080.55	542.2
1080.95	483
1081.32	489.8
1081.72	492.4
1082.09	486.2
1082.49	488.4
1082.86	484.2
1083.24	477.2
1083.63	475.4
1084.01	478.2
1084.38	493.6
1084.78	488
1085.16	491.2
1085.55	502.6
1085.93	501.4
1086.31	487.4
1086.7	510.2
1087.08	492
1087.46	484.2
1087.83	481.8
1088.23	493.8
1088.61	489.4
1088.99	491.2
1089.36	480.6
1089.76	490
1090.14	486.6
1090.52	489.2
1090.9	484.2
1091.27	493.2
1091.67	500.4
1092.05	491
1092.43	479.6
1092.81	490
1093.19	489
1093.57	484.2
1093.95	488
1094.35	498.4
1094.73	489
1095.11	482
1095.49	480
1095.87	479
1096.25	499.4
1096.63	491
1097.01	487.2
1097.39	491.6
1097.77	483.8
1098.15	483
1098.53	487.4
1098.91	483.2
1099.29	487
1099.68	499.8
1100.06	495.8
1100.44	484.6
1100.82	488.6
1101.18	491.4
1101.56	478
1101.95	483.2
1102.33	485.8
1102.71	484.4
1103.1	480.8
1103.48	477.8
1103.86	479.2
1104.22	492.6
1104.61	484.2
1104.99	471.8
1105.38	474.6
1105.76	479.2
1106.12	485.8
1106.51	514.2
1106.89	491.8
1107.26	484.8
1107.64	495
1108.03	479.8
1108.41	489.8
1108.78	486
1109.16	490.6
1109.55	493.8
1109.91	478.8
1110.3	474
1110.69	499.4
1111.05	487.4
1111.44	483.6
1111.8	480.6
1112.19	490
1112.58	490.4
1112.94	482.6
1113.33	482.4
1113.7	480.6
1114.09	484.6
1114.45	477.2
1114.84	491.4
1115.21	490
1115.6	481.6
1115.96	491.8
1116.35	491.8
1116.72	483.8
1117.11	487.8
1117.48	478.2
1117.85	479
1118.24	495.8
1118.6	493
1118.99	487.6
1119.36	492
1119.73	484.6
1120.12	483.8
1120.49	480.6
1120.86	488
1121.25	480.2
1121.62	474.4
1121.99	483
1122.38	490
1122.76	481.8
1123.13	479
1123.5	486
1123.89	494
1124.26	474.2
1124.63	489
1125	486
1125.4	488.2
1125.77	481.4
1126.14	474
1126.51	478.4
1126.88	487.8
1127.26	479.2
1127.63	477.4
1128.02	478.2
1128.4	483.8
1128.77	477
1129.14	482.8
1129.52	484.2
1129.89	484.4
1130.26	481.6
1130.64	477.6
1131.01	475.8
