#lambda/nm	C1
208.295	469.6
208.67	437.2
209.045	393.4
209.419	399.2
209.794	538
210.169	516.4
210.544	627.6
210.919	536.8
211.295	534
211.67	531.4
212.045	524
212.421	530.8
212.796	560.2
213.172	528.8
213.547	537
213.923	533.6
214.299	532.4
214.675	536.4
215.051	533
215.427	541.8
215.803	545.4
216.179	535.4
216.555	527
216.932	541
217.308	538.4
217.684	538
218.061	531.2
218.438	534.2
218.814	531.2
219.191	544.8
219.568	532
219.945	531.4
220.322	550.4
220.699	538.6
221.076	542.2
221.453	535.4
221.83	524.4
222.208	528.6
222.585	526.4
222.962	537.4
223.34	533.2
223.717	533.4
224.095	530
224.473	541.6
224.851	537.8
225.229	526.2
225.607	550.4
225.985	532.8
226.363	536.6
226.741	543.4
227.119	536.2
227.497	551
227.876	531
228.254	536.6
228.633	542
229.011	543.6
229.39	543.2
229.769	536.2
230.148	536.6
230.527	558.4
230.905	532.4
231.284	538.8
231.664	527.8
232.043	546.2
232.422	539.4
232.801	532.6
233.181	543.2
233.56	529.8
233.94	532.4
234.319	530
234.699	532.6
235.079	570.8
235.458	560.4
235.838	551.6
236.218	536.8
236.598	525.4
236.978	529.6
237.358	523.6
237.738	527
238.119	534.8
238.499	524.6
238.88	531
239.26	553.4
239.641	532
240.021	532.6
240.402	534
240.783	533.8
241.163	526.4
241.544	539.6
241.925	535.6
242.306	547.2
242.687	530.6
243.069	540.2
243.45	544.2
243.831	533.8
244.212	529.4
244.594	564
244.975	546
245.357	546.4
245.739	529.2
246.12	538.8
246.502	544
246.884	539.6
247.266	537.8
247.648	543.2
248.03	556.2
248.412	534.4
248.794	537
249.176	534
249.559	535.6
249.941	532.4
250.323	529
250.706	529.4
251.089	529.6
251.471	540.8
251.854	535.2
252.237	535.6
252.62	539.2
253.002	530.6
253.385	535.8
253.769	558.4
254.152	537.2
254.535	545.6
254.918	530.2
255.301	534.8
255.685	533
256.068	524.2
256.452	555.8
256.835	547.8
257.219	539.6
257.603	548.6
257.986	522.6
258.37	537.2
258.754	530.6
259.138	547.2
259.522	547.8
259.906	533.6
260.29	542.8
260.675	538
261.059	535.8
261.443	532.4
261.828	535.6
262.212	536
262.597	517.4
262.981	536.6
263.366	536.2
263.751	538.8
264.136	531.8
264.521	530.8
264.906	531.4
265.291	549
265.676	539.8
266.061	538.6
266.446	551.8
266.831	539.2
267.217	554.2
267.602	545.2
267.987	534.2
268.373	525.8
268.759	540.8
269.144	542.6
269.53	538
269.916	532.2
270.302	533.4
270.688	536.8
271.074	533.4
271.46	539.8
271.846	554.8
272.232	528.8
272.618	534.2
273.004	528
273.391	546
273.777	547.6
274.164	531.8
274.55	542.6
274.937	540.4
275.324	539.8
275.71	541
276.097	540
276.484	528.4
276.871	537.2
277.258	535.4
277.645	517.8
278.032	530.4
278.419	522.2
278.807	541.6
279.194	520.8
279.581	530.4
279.969	534.2
280.356	531.8
280.744	538.8
281.131	553.6
281.519	540.4
281.907	533.4
282.295	534
282.682	543
283.07	528.2
283.458	542
283.846	539.2
284.235	548.4
284.623	540
285.011	525.6
285.399	537
285.788	532.4
286.176	526.6
286.565	545.6
286.953	524.6
287.342	533.2
287.731	530.2
288.119	527
288.508	533.6
288.897	530.2
289.286	523.2
289.675	541.2
290.064	548
290.453	527
290.821	538.8
291.21	546.6
291.599	531
291.989	530.6
292.378	539.6
292.768	542
293.157	540.4
293.547	536.4
293.936	520
294.326	526.4
294.716	527.4
295.106	530.4
295.496	545.4
295.886	539.4
296.276	533.6
296.666	532.2
297.056	534.2
297.446	526.6
297.836	554.2
298.227	528
298.617	537.2
299.008	550.6
299.398	527.4
299.789	531.8
300.179	544
300.57	549.4
300.961	534.8
301.352	537.6
301.742	546.8
302.133	538.6
302.524	537.6
302.915	539.4
303.307	522.8
303.698	540
304.089	540
304.48	529.8
304.872	538
305.263	526
305.655	527.4
306.046	545.6
306.438	541
306.829	530
307.221	537.8
307.613	539
308.005	549
308.397	548.4
308.789	544.2
309.181	559.8
309.573	552.2
309.965	550.8
310.357	528
310.749	545.4
311.142	530.8
311.534	531.6
311.926	543.8
312.319	538.8
312.711	533
313.104	546.4
313.497	534.6
313.889	566
314.282	548.2
314.675	548.8
315.068	534
315.461	541.2
315.854	559.8
316.247	538.2
316.64	532
317.033	535.2
317.405	547.2
317.798	531.2
318.192	537
318.585	524.6
318.979	543.4
319.372	535.6
319.766	533.2
320.16	537.8
320.553	548.6
320.947	553.8
321.341	537.6
321.735	529
322.129	529.4
322.523	557
322.917	526.2
323.311	550.8
323.705	529.8
324.099	535.2
324.494	542.6
324.888	548.8
325.282	533.4
325.677	541.8
326.071	541
326.466	541.4
326.861	534.8
327.255	547.8
327.65	549.8
328.045	553
328.44	532.6
328.835	542.6
329.23	535.4
329.625	557
330.02	534.6
330.415	555.4
330.81	531.4
331.206	542.2
331.601	535.6
331.996	547.8
332.37	548
332.766	527.4
333.161	556.2
333.557	533
333.953	534.4
334.348	838.8
334.744	539.2
335.14	528.4
335.536	531.8
335.932	546.6
336.328	531.6
336.724	540
337.12	539.2
337.516	541
337.913	535
338.309	550.4
338.705	543.4
339.102	548.6
339.498	535.2
339.895	552.2
340.291	530.2
340.688	542.6
341.085	526
341.481	523.4
341.878	532.2
342.275	553
342.672	530.4
343.069	523.2
343.466	524.2
343.842	542
344.239	530
344.636	534
345.033	530.8
345.431	529
345.828	535.2
346.225	529.8
346.623	564.8
347.02	530.4
347.418	538
347.816	546.6
348.213	529.8
348.611	537.4
349.009	529.6
349.407	544.6
349.805	526.4
350.203	516.8
350.601	544.6
350.999	529.2
351.397	578
351.795	538.2
352.193	542.4
352.57	535.2
352.969	541.6
353.367	520.6
353.766	534.2
354.164	535.4
354.563	533.8
354.961	535.4
355.36	530.4
355.759	527.4
356.158	528.2
356.557	523.8
356.956	527
357.355	528.6
357.754	530
358.153	533.2
358.552	552
358.951	530.8
359.35	538.8
359.75	531.8
360.149	525.8
360.527	522
360.926	529.8
361.326	531.8
361.726	532.6
362.125	525.2
362.525	534.2
362.925	529.4
363.325	530.8
363.724	530
364.124	535.6
364.524	528.6
364.924	534.4
365.324	530.8
365.725	514.6
366.125	540.2
366.525	526.4
366.904	521.4
367.304	521
367.705	546.2
368.105	541.4
368.506	523.4
368.906	530.6
369.307	534.6
369.708	538.4
370.108	525
370.509	541.2
370.91	519.8
371.311	532
371.712	529
372.113	530.8
372.514	516.6
372.894	529
373.295	520.2
373.696	532.2
374.097	538.6
374.499	556.6
374.9	523.8
375.301	523.2
375.703	527.2
376.105	520
376.506	531.2
376.908	530.8
377.309	525
377.711	525.6
378.113	521.8
378.493	533.2
378.895	518.2
379.297	539
379.699	519
380.102	532
380.504	518.8
380.906	531.4
381.308	546.6
381.71	527.2
382.113	536.4
382.515	527.2
382.918	528
383.299	529
383.701	536
384.104	527.4
384.507	512.8
384.909	521.2
385.312	514.6
385.715	514.6
386.118	520.4
386.521	516.2
386.924	528.8
387.327	510.8
387.709	518.2
388.112	513
388.515	521.8
388.918	521.4
389.322	520.8
389.725	521.8
390.129	540.8
390.532	535.4
390.936	524.8
391.339	521.6
391.743	526.6
392.125	522.4
392.529	531.6
392.933	535
393.337	526.6
393.74	520.2
394.144	527.6
394.548	523
394.953	526.6
395.357	526.2
395.761	529.4
396.144	528.4
396.548	516.8
396.952	523.6
397.357	531.8
397.761	527
398.166	526.2
398.57	520
398.975	524.4
399.379	527
399.763	567
400.168	519.8
400.572	534.6
400.977	528
401.382	530.6
401.787	537
402.192	536.4
402.597	543.2
403.002	519.2
403.386	534.4
403.791	545.6
404.197	524
404.602	523.8
405.007	529.4
405.413	524
405.818	526
406.224	520.2
406.608	525.2
407.014	518
407.42	545.4
407.825	527.2
408.231	531.2
408.637	534
409.043	539.6
409.449	518.2
409.834	520.2
410.24	521.6
410.646	527
411.052	534.8
411.458	528.8
411.865	532.2
412.271	538.2
412.677	528.4
413.062	525.8
413.469	522.6
413.875	552.6
414.282	532
414.689	529.6
415.095	528.8
415.502	527.2
415.888	531
416.294	509.6
416.701	568.2
417.108	520.8
417.515	538.8
417.923	530.6
418.33	545.2
418.715	536
419.123	526.4
419.53	529.8
419.937	532.4
420.345	540
420.752	528.4
421.16	539.4
421.546	532.6
421.953	538
422.361	519.2
422.769	532
423.177	525.6
423.585	548.8
423.992	554
424.379	545
424.787	537.2
425.195	543.6
425.603	529.4
426.011	537.6
426.419	539.2
426.806	530.2
427.214	532.2
427.623	537.8
428.031	549.4
428.44	545.6
428.848	557.2
429.235	557.8
429.644	558.2
430.053	561
430.461	584.4
430.87	599.6
431.279	594
431.666	596.2
432.075	617.2
432.484	621.2
432.893	642
433.302	666.4
433.711	696
434.099	697.6
434.508	710
434.918	723
435.327	761.6
435.737	772.2
436.125	786.8
436.534	819.2
436.944	834.8
437.353	860.6
437.763	881.4
438.173	880.6
438.561	933.8
438.971	918.8
439.381	947.8
439.791	980.4
440.201	976.8
440.589	1006.8
440.999	1029.6
441.409	1041.2
441.819	1044
442.23	1071.8
442.619	1076.6
443.029	1106.8
443.439	1107.4
443.85	1136
444.26	1147.2
444.649	1135.2
445.06	1145.2
445.471	1149
445.881	1172.8
446.292	1197
446.682	1203
447.092	1188
447.503	1238.4
447.914	1192.2
448.325	1216.8
448.715	1228.8
449.126	1228.8
449.537	1211.2
449.948	1220.2
450.338	1239.4
450.75	1252
451.161	1249.4
451.572	1260.4
451.984	1264.6
452.374	1265.2
452.786	1278.8
453.197	1271.2
453.609	1294
453.999	1266
454.411	1276.6
454.823	1276.6
455.235	1289.6
455.647	1279.6
456.037	1284.4
456.449	1277.2
456.862	1292.8
457.274	1279.6
457.665	1281.8
458.077	1302.2
458.489	1305.2
458.902	1304.8
459.293	1295.2
459.705	1290.8
460.118	1282.6
460.53	1288
460.921	1291.8
461.334	1281.8
461.747	1298
462.16	1308.6
462.551	1307.2
462.964	1298.4
463.377	1288.8
463.79	1302
464.182	1299.8
464.595	1304
465.008	1303.4
465.421	1303
465.813	1280.4
466.226	1295
466.64	1295
467.053	1333.4
467.445	1302.4
467.859	1311.8
468.272	1300.8
468.686	1308.2
469.078	1303.8
469.492	1285
469.906	1295.2
470.298	1303
470.712	1300.8
471.126	1327.4
471.54	1297.6
471.933	1274.2
472.347	1294.4
472.761	1286
473.175	1264.8
473.568	1290.6
473.982	1274.6
474.397	1275.8
474.79	1272.2
475.204	1265.6
475.619	1265.2
476.033	1259.8
476.426	1267.6
476.841	1253.2
477.256	1262.4
477.649	1246.2
478.064	1235
478.479	1229.6
478.872	1214.2
479.287	1216.8
479.702	1230
480.118	1224
480.511	1217
480.927	1222.6
481.342	1206
481.736	1202.6
482.151	1198
482.566	1223.4
482.96	1195.4
483.376	1208
483.792	1187.8
484.186	1188.2
484.602	1180.8
485.017	1183.6
485.412	1176.4
485.827	1183
486.243	1159.4
486.638	1174.8
487.054	1166.2
487.47	1164.4
487.865	1153.4
488.281	1145.6
488.697	1134.8
489.092	1142
489.508	1122.4
489.925	1123
490.32	1110
490.736	1127.2
491.153	1119
491.548	1099.6
491.964	1102.2
492.381	1083
492.776	1089.6
493.193	1089
493.61	1095.6
494.006	1068.6
494.422	1073.2
494.84	1056.4
495.235	1072.6
495.652	1066.4
496.069	1062
496.465	1050.8
496.883	1061.2
497.3	1070.4
497.696	1032.6
498.113	1033.4
498.509	1018
498.927	1010
499.344	1015.4
499.741	1001
500.158	1024.6
500.576	1030
500.973	997
501.39	991.2
501.787	981.8
502.205	984.4
502.623	981.6
503.02	973.2
503.438	969
503.856	967.2
504.253	969.4
504.671	964.2
505.068	955.2
505.486	947.4
505.905	952.6
506.302	938.6
506.72	951
507.118	922.6
507.536	927.6
507.955	909.4
508.352	925
508.771	923.6
509.169	912.2
509.587	905.8
510.006	908
510.404	898.6
510.823	888.8
511.221	878.8
511.64	884
512.038	892.4
512.457	886.4
512.877	879.4
513.275	874.8
513.694	863
514.092	865.2
514.512	861
514.91	864.6
515.33	863
515.749	847.8
516.148	843.4
516.568	847.8
516.966	832.4
517.386	839
517.785	832.2
518.205	826.2
518.603	810.2
519.024	813.6
519.444	818.8
519.843	815.6
520.263	826.6
520.662	808.8
521.082	800.8
521.481	812
521.902	797.4
522.301	792
522.722	807.6
523.121	783.6
523.542	784
523.963	787.8
524.362	782.6
524.783	763.8
525.183	770.4
525.604	780.8
526.003	761.6
526.425	764.8
526.824	767.6
527.246	769.4
527.646	757.4
528.067	769.8
528.467	749.4
528.888	749.2
529.289	736.8
529.71	746.8
530.11	739.6
530.532	739.2
530.932	736.6
531.354	721.8
531.755	750
532.176	734
532.577	732.8
532.999	726.8
533.4	726.8
533.822	728.4
534.223	710.2
534.645	707.2
535.046	702.8
535.468	701.4
535.869	719.8
536.292	701.2
536.693	721.4
537.115	707.6
537.516	698
537.939	699.8
538.34	712.2
538.742	705.4
539.165	693.6
539.566	689.8
539.989	685.8
540.391	688.6
540.814	690.6
541.216	681.8
541.639	685.4
542.041	688.8
542.464	673.6
542.866	675.4
543.268	665.6
543.691	671.6
544.093	695
544.517	691.8
544.919	665.2
545.343	679.6
545.745	664.6
546.147	664.4
546.571	670
546.974	663.2
547.398	668.8
547.8	665.2
548.224	651.4
548.627	658.6
549.03	652.6
549.454	641.2
549.857	640
550.281	641
550.684	643.6
551.087	654.2
551.512	644.4
551.915	644.2
552.34	639.2
552.743	642.8
553.146	640
553.571	633.8
553.975	658.4
554.399	628.4
554.803	670.8
555.207	624.4
555.632	613.4
556.036	626.4
556.461	615
556.865	631.2
557.268	619
557.694	614.4
558.098	629.4
558.502	619
558.927	609.8
559.332	616.4
559.736	607.8
560.162	608.8
560.566	605.4
560.992	611.8
561.396	607.4
561.801	597.8
562.227	610.2
562.631	598.4
563.036	606
563.462	613
563.867	594.8
564.272	600.2
564.698	591.8
565.103	588.4
565.508	614.8
565.935	597
566.34	595.6
566.745	609.6
567.172	587.4
567.577	599.8
567.982	595
568.409	585.8
568.815	581.2
569.22	583
569.626	588.6
570.053	572.2
570.459	580.6
570.865	590
571.292	583.8
571.698	585
572.104	563.2
572.531	577.2
572.937	579.8
573.343	573.4
573.75	575.2
574.177	574.2
574.583	577
574.99	566.4
575.396	589
575.824	567.2
576.231	578.4
576.637	568.6
577.065	583.8
577.472	568
577.879	571.6
578.286	576.8
578.714	559.2
579.121	574.6
579.528	569.2
579.935	573.2
580.364	562
580.771	554
581.178	555.8
581.585	563.2
582.014	555.4
582.421	558.2
582.829	554.2
583.236	571.2
583.644	555
584.073	559
584.481	549.8
584.889	546.6
585.296	560.6
585.726	549.6
586.134	543
586.542	555.8
586.95	564.6
587.358	537.8
587.787	553.2
588.196	543.8
588.604	548
589.012	550.6
589.421	550.8
589.851	549.8
590.259	549
590.668	545.8
591.076	570.6
591.485	538.4
591.894	563
592.324	552
592.733	551
593.142	541.6
593.551	543.4
593.96	553.8
594.369	535.4
594.8	539.6
595.209	541.8
595.618	531
596.028	538.6
596.437	533.4
596.847	539.2
597.256	547.8
597.687	544
598.097	545.6
598.507	534.4
598.917	547.2
599.327	539.6
599.736	540.8
600.146	543.6
600.556	539
600.988	548.8
601.398	543.2
601.808	544.6
602.219	522.4
602.629	538.4
603.039	536.8
603.45	553.4
603.86	541.8
604.271	548.8
604.703	539
605.114	530.6
605.525	532.2
605.935	538.6
606.346	551.6
606.757	533
607.168	527.2
607.579	526
607.99	535.8
608.402	537.4
608.813	533.8
609.224	538.2
609.636	532.4
610.047	529.8
610.48	527.8
610.892	535
611.303	538.8
611.715	533
612.127	527.8
612.539	535.4
612.95	539.8
613.362	535
613.774	532.6
614.186	528.6
614.599	533.4
615.011	535.8
615.423	522.8
615.835	533
616.248	518.8
616.66	538.4
617.073	532.8
617.485	532.8
617.898	537
618.311	532
618.723	545.6
619.136	559.2
619.549	549.2
619.962	550.2
620.375	523.2
620.788	541.4
621.201	529.2
621.614	548.6
622.028	535.8
622.441	533
622.854	542.2
623.268	534.6
623.681	542.2
624.095	529.8
624.509	544.8
624.922	536
625.336	530.4
625.728	533.4
626.142	539.4
626.556	554.6
626.97	539
627.384	527.2
627.799	532
628.213	538.4
628.627	531.6
629.041	534.8
629.456	530.6
629.87	534.6
630.285	543.8
630.699	542.4
631.093	537.2
631.507	532.6
631.922	539.2
632.337	543
632.752	525.2
633.167	529.2
633.582	525.6
633.997	521.6
634.412	518.4
634.806	532
635.221	525.6
635.637	536.6
636.052	529
636.468	526
636.883	540.4
637.299	530.4
637.715	518.6
638.109	528
638.525	516.8
638.941	536.4
639.357	534.4
639.773	535.8
640.189	515.8
640.584	526.8
641	529.8
641.416	514.6
641.832	524.2
642.249	526.8
642.665	522.4
643.06	524.4
643.477	531.8
643.894	508.2
644.31	519.8
644.727	529.4
645.123	528
645.54	520.2
645.957	524.4
646.374	526.4
646.77	524
647.187	543.8
647.604	522.4
648.021	506.6
648.439	518.8
648.835	523.4
649.252	516.2
649.67	519
650.088	520.6
650.484	518.4
650.902	529.4
651.32	525.2
651.738	515.2
652.134	520.2
652.552	527.4
652.971	521
653.389	515.6
653.786	525.2
654.204	528.6
654.622	511.4
655.019	514
655.438	524.8
655.857	522.8
656.275	519.6
656.673	501.4
657.091	520.6
657.51	501.8
657.908	519.6
658.327	522.6
658.746	509.6
659.144	513.8
659.563	526
659.982	511.4
660.38	513.4
660.8	504.8
661.219	521.2
661.617	521.4
662.037	511.8
662.457	526.4
662.855	500
663.275	537.6
663.695	507.8
664.094	510.6
664.514	514.2
664.934	502
665.333	515.2
665.753	515
666.152	511.2
666.572	504.4
666.993	512.2
667.392	506.4
667.812	501.6
668.212	504.8
668.632	516.6
669.053	510
669.453	515.8
669.874	514
670.273	517
670.694	500.4
671.116	514.4
671.515	516.4
671.937	500.8
672.337	505
672.758	510.4
673.158	517.2
673.58	498.6
673.98	505
674.402	517.4
674.824	510.6
675.224	511.6
675.646	502.6
676.047	513
676.469	507.8
676.869	514.4
677.292	513.2
677.693	500.2
678.115	502
678.516	511.8
678.939	505
679.34	502
679.762	508.4
680.164	503.4
680.586	498.4
680.988	504.8
681.411	524
681.812	504.8
682.236	493.4
682.637	499.2
683.061	496.8
683.462	514.8
683.864	509.4
684.288	506.6
684.69	488.8
685.114	516.6
685.516	516.4
685.94	505.2
686.342	513.8
686.766	505.6
687.168	499.6
687.571	522
687.995	504.2
688.398	501.8
688.822	507.4
689.225	518
689.628	520.2
690.052	515
690.456	511
690.88	506.6
691.284	505.2
691.687	522.8
692.112	502.6
692.515	502.2
692.919	504.4
693.344	510
693.747	502.6
694.173	508.4
694.577	520.4
694.98	509.4
695.406	511.6
695.81	508
696.214	516.2
696.64	504.2
697.044	507.6
697.448	517.2
697.874	509.6
698.279	502.2
698.684	500.6
699.11	500.6
699.514	512.2
699.919	500.8
700.324	497.8
700.75	503.6
701.156	507.2
701.561	508
701.987	507.2
702.393	509
702.798	508.6
703.203	503.6
703.63	500
704.036	499.2
704.442	510.6
704.847	500.4
705.274	513.6
705.68	507.2
706.086	505.8
706.492	496.6
706.92	497.6
707.326	514.8
707.732	511.2
708.139	502.6
708.545	498.2
708.973	493.6
709.38	504.2
709.786	496
710.193	518.2
710.6	505.6
711.028	502.4
711.435	498.2
711.842	506
712.249	502.4
712.656	507.4
713.064	513.8
713.492	497.8
713.9	504
714.307	507.2
714.715	505.2
715.123	508
715.53	506.6
715.938	515
716.367	510.2
716.775	497
717.184	498
717.592	506.8
718	511.6
718.408	527.6
718.816	538
719.225	508.8
719.633	504.2
720.042	497.8
720.472	497.8
720.881	519.8
721.29	511.2
721.699	502.2
722.108	503.6
722.517	501.8
722.926	496
723.335	517.2
723.744	508.8
724.154	511.4
724.563	505.2
724.973	501.8
725.382	508.6
725.792	502.8
726.202	495.4
726.612	514.6
727.022	507.2
727.432	503
779.813	498.4
780.223	543
780.634	501.4
781.044	496
781.454	500.8
781.865	519
782.276	496.8
782.686	512.6
783.097	501.2
783.508	504.8
783.919	504
784.33	511.4
784.741	516.2
785.152	503.6
785.563	490.6
785.974	495.6
786.386	514.2
786.776	507.6
787.188	508
787.599	493.8
788.011	518.2
788.423	512.4
788.835	501.8
789.247	504.6
789.659	501
790.071	491.8
790.483	538.4
790.874	493.2
791.286	510
791.699	492.6
792.111	503.6
792.524	503.2
792.937	504.8
793.349	491.8
793.741	497.2
794.154	496.2
794.567	521
794.98	499.6
795.393	491.2
795.785	516.6
796.198	497.6
796.612	508.8
797.026	501.8
797.439	487.8
797.831	504.4
798.245	494
798.659	499.8
799.073	502.8
799.487	495.8
799.88	502.4
800.294	504
800.708	504.6
801.123	506.2
801.516	517.4
801.93	489.2
802.345	489.4
802.76	501.8
803.153	511.6
803.568	506.2
803.983	506.8
804.377	511.8
804.792	484.2
805.207	483.8
805.601	507.2
806.016	525.6
806.432	494
806.826	525.2
807.242	507.8
807.658	499.2
808.052	499.6
808.468	497
808.884	497
809.279	503.2
809.695	508.2
810.111	514
810.506	502.6
810.922	516
811.339	500.6
811.734	511
812.151	494.2
812.546	489.8
812.963	490.2
813.38	507.4
813.776	491
814.193	514.4
814.589	493.2
815.006	495.2
815.402	496.6
815.82	485
816.237	500.4
816.633	496.6
817.051	486.8
817.448	500.6
817.866	493.8
818.262	514.2
818.68	490.2
819.077	499
819.495	505.8
819.892	537.6
820.311	491.4
820.708	502.8
821.127	493.2
821.524	504.8
821.943	493.2
822.34	515.6
822.759	504.8
823.157	495.4
823.576	507.2
823.974	505.8
824.393	553.8
824.791	497.2
825.189	494.2
825.609	496.8
826.007	497.2
826.427	492.4
826.826	496.4
827.246	504.2
827.644	485.2
828.043	506.8
828.463	487
828.862	504.6
829.261	503.4
829.682	481.4
830.081	505.2
830.502	488.6
830.901	495.2
831.301	496.4
831.722	492.8
832.121	499.2
832.521	492
832.943	501
833.342	502.8
833.742	498
834.164	504.8
834.564	492.8
834.965	498.6
835.386	499
835.787	493.4
836.188	487.6
836.588	500
837.01	499
837.411	493.4
837.812	505.6
838.213	500.2
838.636	501.8
839.037	557.2
839.438	505.4
839.84	504.8
840.263	494
840.664	503.8
841.066	502
841.468	502.4
841.891	498
842.293	508.6
842.695	493.6
843.098	501
843.5	500.2
843.902	505.8
844.326	506.4
844.729	504.2
845.131	515.6
845.534	499.8
845.937	514.6
846.34	523.8
846.764	495.6
847.167	500.4
847.571	490.6
847.974	499.6
848.377	490.8
848.781	532.8
849.184	509.2
849.588	489.2
849.992	494.2
850.396	487.8
850.821	513
851.225	503.2
851.63	493.6
852.034	505.2
852.438	490
852.843	527.6
853.247	490.6
853.652	496
854.057	513
854.462	500.6
854.867	493.2
855.272	522.8
855.677	499.4
856.082	497.4
856.487	495
856.893	495
857.298	500.2
857.704	498.6
858.11	502.4
858.516	502.8
858.922	504.2
859.328	509.4
859.734	501.8
860.14	506
860.525	500.8
860.931	493.8
861.338	495.8
861.745	502.2
862.151	505.6
862.558	503
862.965	496.6
863.372	489.8
863.779	494.4
864.186	515.8
864.572	496.4
864.98	505.6
865.387	527.8
865.795	492
866.203	504.2
866.61	494.8
867.018	502.2
867.405	501.8
867.813	497
868.221	496.4
868.63	502.2
869.038	509.2
869.425	532
869.834	493.2
870.243	492.6
870.652	490.2
871.039	489.2
871.448	496.4
871.857	496
872.266	499.2
872.654	494.8
873.064	490.4
873.473	509.2
873.883	496.6
874.271	490.8
874.681	507.2
875.091	484.6
875.48	504.8
875.89	508.4
876.3	489.4
876.689	484.2
877.1	490.4
877.51	496.8
877.9	517.8
878.31	495.4
878.721	524.2
879.111	498
879.522	497.4
879.933	497
880.323	493.6
880.734	488.6
881.125	492.4
881.536	491.6
881.948	498.2
882.338	505.4
882.75	493.4
883.141	494.4
883.553	503.2
883.944	514.8
884.356	503.4
884.769	496.4
885.16	509.2
885.573	501
885.964	489.4
886.377	499
886.768	485.2
887.181	500.2
887.573	492.2
887.987	502.8
888.378	504.2
888.792	502
889.184	534.2
889.598	487.6
889.99	490.4
890.383	487.8
890.797	486.8
891.19	501
891.604	497.6
891.997	496
892.411	490.6
892.805	489.2
893.198	491.2
893.613	488.8
894.006	496.6
894.421	484.4
894.815	494.6
895.209	490.2
895.624	530.6
896.018	515.2
896.412	497.2
896.828	493.2
897.222	500.2
897.617	494.4
898.033	514.8
898.427	500.8
898.822	496.6
899.239	487.8
899.634	484.2
900.029	501.4
900.424	485
900.841	487.6
901.236	507.2
901.632	510.6
902.027	548.6
902.445	502.2
902.841	489.4
903.237	500.8
903.633	505.2
904.05	502.2
904.447	500.6
904.843	498.8
905.24	493.8
905.636	487.4
906.033	493.2
906.451	505.2
906.848	488.6
907.246	493.2
907.643	496.8
908.04	501.2
908.438	497
908.835	493.8
909.254	493.6
909.652	498.6
910.05	496.4
910.448	491.2
910.846	499.6
911.244	484.4
911.643	499
912.041	491.4
912.44	507.2
912.839	491.6
913.237	486.2
913.636	485
914.035	498
914.434	490.4
914.834	498.6
915.233	503.2
915.633	492.2
916.032	490.6
916.432	491.6
916.832	505.8
917.232	489
917.632	491
918.032	501
918.432	491.4
918.833	484.4
919.233	488.6
919.634	480.8
920.035	504.6
920.436	492.4
920.837	496.4
921.238	490.4
921.639	489.8
922.019	494.2
922.42	494.8
922.822	495.2
923.224	491.8
923.625	487.6
924.027	495.8
924.429	507.6
924.81	493
925.212	507.6
925.615	494.2
926.017	492.4
926.42	500.6
926.801	493.8
927.204	495
927.607	507.2
928.01	508.4
928.413	489
928.795	487.6
929.199	494.4
929.602	487.6
930.006	489.4
930.388	493
930.792	496.6
931.196	496
931.579	522.6
931.983	479.4
932.388	532.2
932.771	490.8
933.176	491.4
933.58	497
933.964	497.6
934.369	485.2
934.774	494.6
935.158	502.6
935.563	491.8
935.947	497.2
936.353	496.2
936.759	495.6
937.143	495.8
937.549	498.4
937.934	505.8
938.34	513.6
938.746	493.2
939.131	495.2
939.538	493.6
939.923	495.8
940.33	492.2
940.716	496.8
941.123	495.2
941.508	503.8
941.916	514.8
942.302	497
942.709	485.8
943.096	482.4
943.503	492.6
943.89	487.6
944.298	490.4
944.685	517.8
945.072	486
945.48	499.6
945.867	487.2
946.276	487.4
946.663	506
947.051	505.8
947.46	497.4
947.848	488.6
948.257	495
948.645	498.4
949.033	486.4
949.443	487.4
949.831	530.4
950.22	489
950.63	503.8
951.018	516.6
951.407	488.8
951.796	489
952.207	501.6
952.596	501.8
952.985	491.4
953.375	530.4
953.786	492.2
954.176	490.6
954.566	503.4
954.956	493.4
955.367	491.8
955.758	514.2
956.148	487.4
956.539	508
956.929	482
957.341	487
957.732	490.8
958.123	505.2
958.515	492
958.906	498.8
959.297	491.4
959.689	494.6
960.102	484.4
960.494	497.4
960.886	492.2
961.278	495.8
961.67	512
962.062	521.4
962.455	490.8
962.847	487.8
963.24	494.8
963.633	493.2
964.026	493
964.419	491.8
964.812	497.6
965.206	492.8
965.599	500
965.993	500.2
966.386	497
966.78	504.8
967.174	504.8
967.569	488
967.963	488
968.357	489.8
968.752	486.4
969.146	492.4
969.541	492
969.936	491.4
970.331	486.2
970.705	496.6
971.1	491.2
971.496	498.4
971.892	484.8
972.287	492.6
972.683	492.6
973.079	498.2
973.454	501.2
973.85	500.8
974.247	500.2
974.643	512.6
975.04	497.4
975.415	498.8
975.812	495.2
976.209	495.2
976.607	486
976.982	505
977.38	508.6
977.778	493.8
978.175	484.4
978.552	496.6
978.95	506.8
979.348	495.8
979.725	536.6
980.123	490.8
980.522	492
980.899	485.6
981.298	494.4
981.697	490.6
982.075	489.6
982.474	487
982.852	500
983.251	504
983.651	495.4
984.029	496.6
984.429	499.4
984.808	486.2
985.208	489.6
985.609	482.8
985.987	486.6
986.388	492.2
986.768	493
987.168	491.2
987.548	499.8
987.949	496.2
988.329	490.2
988.731	489.2
989.111	491.6
989.491	486.6
989.893	486.6
990.273	495
990.676	485.4
991.057	480.4
991.459	488.6
991.84	493.4
992.221	484.2
992.624	504.4
993.006	500.2
993.388	494.8
993.791	490
994.173	495
994.576	517.2
994.959	488.6
995.341	477.8
995.724	487
996.128	483.2
996.511	493.6
996.894	488
997.298	496.2
997.681	497.4
998.065	495.4
998.448	481.2
998.854	497.6
999.237	487.2
999.621	493
1000.01	501.4
1000.39	487.4
1000.8	493
1001.18	489
1001.56	498.8
1001.95	487.2
1002.33	491.4
1002.72	489.4
1003.13	492.6
1003.51	478.8
1003.9	488.6
1004.28	503.2
1004.67	481.8
1005.06	482
1005.44	518.6
1005.83	481.2
1006.21	486.6
1006.6	484.4
1006.99	501.8
1007.37	495.2
1007.76	496.4
1060.12	489.8
1060.51	479.4
1060.89	492.4
1061.28	499.6
1061.67	492.2
1062.06	495.8
1062.45	490
1062.83	483
1063.22	487.2
1063.61	529.6
1064	503.2
1064.39	490.4
1064.78	491.4
1065.14	492
1065.53	492
1065.92	489.2
1066.31	490.2
1066.7	484.8
1067.09	502.6
1067.46	498.6
1067.85	488.2
1068.24	486.4
1068.63	495
1069.02	480.4
1069.39	493.6
1069.78	479.6
1070.17	491.4
1070.57	480.4
1070.93	490.8
1071.33	483
1071.72	488.8
1072.11	485.4
1072.48	479.6
1072.87	491.6
1073.26	487.4
1073.64	485.2
1074.03	488.2
1074.4	485
1074.79	489.8
1075.19	491.6
1075.56	486
1075.95	494.8
1076.34	486.4
1076.72	485.8
1077.11	499.2
1077.48	495.6
1077.88	491.6
1078.25	484.6
1078.64	497
1079.02	496
1079.41	497.2
1079.78	491.4
1080.18	485
1080.55	544.4
1080.95	485.4
1081.32	482.4
1081.72	488.6
1082.09	498.2
1082.49	488.8
1082.86	490.8
1083.24	484.8
1083.63	484.6
1084.01	496.4
1084.38	494.4
1084.78	485.2
1085.16	496.6
1085.55	498.6
1085.93	501
1086.31	484.8
1086.7	512.6
1087.08	481.2
1087.46	489.6
1087.83	485.2
1088.23	505.4
1088.61	484.8
1088.99	489.6
1089.36	485.4
1089.76	489.6
1090.14	491
1090.52	483.6
1090.9	483.2
1091.27	497.6
1091.67	510.8
1092.05	496.2
1092.43	485.6
1092.81	492.2
1093.19	500.6
1093.57	489.4
1093.95	483.8
1094.35	500.2
1094.73	497.6
1095.11	485
1095.49	481.6
1095.87	495.2
1096.25	501.4
1096.63	497
1097.01	491.4
1097.39	498.2
1097.77	487.6
1098.15	487.6
1098.53	492.4
1098.91	478
1099.29	491.6
1099.68	505.4
1100.06	494.8
1100.44	486
1100.82	499.4
1101.18	493.4
1101.56	490.8
1101.95	491
1102.33	489.2
1102.71	492.4
1103.1	489.2
1103.48	483.4
1103.86	480.2
1104.22	496.4
1104.61	492
1104.99	485.6
1105.38	480.6
1105.76	498.6
1106.12	491.6
1106.51	516.4
1106.89	496
1107.26	492
1107.64	494.4
1108.03	495.4
1108.41	492.8
1108.78	491.6
1109.16	491.2
1109.55	500.8
1109.91	481.6
1110.3	477.4
1110.69	501
1111.05	489.6
1111.44	487
1111.8	485.4
1112.19	494.8
1112.58	489.8
1112.94	491.8
1113.33	489.4
1113.7	488.2
1114.09	491.6
1114.45	481.4
1114.84	486.2
1115.21	490.8
1115.6	486.2
1115.96	496
1116.35	498
1116.72	484
1117.11	492.4
1117.48	484.4
1117.85	495.8
1118.24	494.8
1118.6	497.6
1118.99	481.4
1119.36	495
1119.73	492.6
1120.12	491
1120.49	475.8
1120.86	497
1121.25	489.8
1121.62	481.8
1121.99	482.2
1122.38	493
1122.76	489.4
1123.13	487.4
1123.5	496.4
1123.89	497.8
1124.26	482.2
1124.63	498.2
1125	490.2
1125.4	481
1125.77	478.2
1126.14	477.2
1126.51	486
1126.88	484.4
1127.26	487.8
1127.63	472.4
1128.02	481.6
1128.4	481.2
1128.77	488.2
1129.14	487
1129.52	495.8
1129.89	493.2
1130.26	493.2
1130.64	472.8
1131.01	480
