#lambda/nm	C1
208.295	463.4
208.67	431.8
209.045	393.4
209.419	396.2
209.794	534.6
210.169	526.2
210.544	627.8
210.919	536.2
211.295	521.8
211.67	535
212.045	536.4
212.421	531.2
212.796	554.8
213.172	522.4
213.547	532
213.923	535
214.299	531.6
214.675	549
215.051	543.8
215.427	540
215.803	551.6
216.179	540
216.555	531.4
216.932	545.2
217.308	543.2
217.684	542.8
218.061	546.2
218.438	539.4
218.814	527.4
219.191	544.4
219.568	531
219.945	539.6
220.322	549.2
220.699	541.2
221.076	547.8
221.453	540
221.83	531
222.208	536.2
222.585	539.8
222.962	542.8
223.34	544.8
223.717	534.2
224.095	537.6
224.473	537
224.851	535.8
225.229	533.6
225.607	550.2
225.985	527.6
226.363	541.2
226.741	536.6
227.119	538.4
227.497	553
227.876	522.6
228.254	545.2
228.633	539
229.011	535
229.39	543.4
229.769	546.2
230.148	541
230.527	554.2
230.905	536.2
231.284	545.6
231.664	545
232.043	547
232.422	543.4
232.801	535.2
233.181	539.4
233.56	537
233.94	542.2
234.319	530.8
234.699	534.2
235.079	569.8
235.458	571.8
235.838	551.2
236.218	531.2
236.598	523.6
236.978	532.2
237.358	535
237.738	532.2
238.119	544.8
238.499	526
238.88	533.2
239.26	548
239.641	529.6
240.021	530.6
240.402	539.4
240.783	531
241.163	536.6
241.544	547.6
241.925	538.8
242.306	552.4
242.687	537
243.069	532
243.45	543.2
243.831	537.6
244.212	531.4
244.594	565.8
244.975	537.4
245.357	539.6
245.739	527.4
246.12	535.6
246.502	552.2
246.884	533
247.266	534.6
247.648	535.6
248.03	555.4
248.412	529
248.794	537
249.176	533.8
249.559	546
249.941	531.4
250.323	529.6
250.706	530.6
251.089	531
251.471	540.6
251.854	536.4
252.237	533.8
252.62	544.2
253.002	537.6
253.385	538.6
253.769	550.6
254.152	530.4
254.535	543
254.918	521.2
255.301	526.8
255.685	533.4
256.068	530.2
256.452	558
256.835	549.4
257.219	534.6
257.603	547.4
257.986	526.4
258.37	536.8
258.754	534
259.138	537.8
259.522	539.6
259.906	532.6
260.29	537.4
260.675	536.4
261.059	535.2
261.443	529.4
261.828	547
262.212	538.8
262.597	526.2
262.981	534.2
263.366	542.8
263.751	537.8
264.136	532.2
264.521	536.8
264.906	526
265.291	539.8
265.676	526
266.061	540.2
266.446	544.2
266.831	534
267.217	557.2
267.602	536.2
267.987	540
268.373	534.2
268.759	546
269.144	541.8
269.53	533.2
269.916	533.8
270.302	537.8
270.688	544.6
271.074	532.6
271.46	544.4
271.846	557
272.232	532.6
272.618	537.6
273.004	538.4
273.391	543.4
273.777	550
274.164	542.6
274.55	556.2
274.937	539.4
275.324	538.6
275.71	537.2
276.097	542.8
276.484	523
276.871	530.6
277.258	536.4
277.645	533
278.032	539.4
278.419	525.4
278.807	542.8
279.194	527.2
279.581	531.8
279.969	542.2
280.356	536.6
280.744	539.8
281.131	551.8
281.519	539.8
281.907	531.6
282.295	541.8
282.682	537
283.07	534.6
283.458	546.4
283.846	551.4
284.235	539.8
284.623	542
285.011	526
285.399	535
285.788	540.4
286.176	515.6
286.565	537.2
286.953	525.6
287.342	531.8
287.731	528
288.119	525.6
288.508	532
288.897	533.8
289.286	525.8
289.675	532.6
290.064	538.2
290.453	534.4
290.821	532.8
291.21	550.4
291.599	532.8
291.989	541.4
292.378	547.8
292.768	553.6
293.157	541.2
293.547	547.4
293.936	537.6
294.326	531.4
294.716	545
295.106	538.6
295.496	545.4
295.886	538.4
296.276	538
296.666	532
297.056	535.6
297.446	528.4
297.836	554.2
298.227	524.6
298.617	545
299.008	544.4
299.398	535.6
299.789	529.6
300.179	538.2
300.57	550.8
300.961	529.2
301.352	532.2
301.742	539.8
302.133	535.6
302.524	532.4
302.915	540.2
303.307	528.8
303.698	544.4
304.089	541.8
304.48	535.6
304.872	539.2
305.263	536
305.655	524
306.046	541.8
306.438	539.8
306.829	530.6
307.221	551.4
307.613	545
308.005	544.8
308.397	551.4
308.789	546
309.181	554.6
309.573	548.4
309.965	552
310.357	535.4
310.749	546.6
311.142	526.6
311.534	526.4
311.926	534.8
312.319	537.6
312.711	533.4
313.104	548.6
313.497	530.6
313.889	560.6
314.282	552.2
314.675	554.8
315.068	540.8
315.461	544.8
315.854	564
316.247	540.2
316.64	538
317.033	540.6
317.405	541.8
317.798	541.2
318.192	542.2
318.585	534.4
318.979	544.6
319.372	530.6
319.766	539.2
320.16	540.6
320.553	553.6
320.947	552.6
321.341	533.4
321.735	534
322.129	524.8
322.523	554.8
322.917	529.8
323.311	546.6
323.705	537
324.099	537.6
324.494	552.6
324.888	545.2
325.282	533
325.677	550.2
326.071	541.4
326.466	545.2
326.861	540.6
327.255	546.8
327.65	552
328.045	549
328.44	546.8
328.835	538.6
329.23	536.4
329.625	559.4
330.02	529.2
330.415	560
330.81	538
331.206	538.6
331.601	533.8
331.996	546.6
332.37	557.8
332.766	535.6
333.161	560.2
333.557	532.4
333.953	536.8
334.348	758.8
334.744	541.2
335.14	536.4
335.536	530.2
335.932	551.4
336.328	539
336.724	545.8
337.12	534.4
337.516	543
337.913	538.2
338.309	551.2
338.705	535.6
339.102	540.8
339.498	532
339.895	546.2
340.291	531.6
340.688	546.4
341.085	528.6
341.481	532.6
341.878	532.4
342.275	551
342.672	531.4
343.069	530.4
343.466	528.8
343.842	547.8
344.239	525
344.636	539.8
345.033	523
345.431	531.2
345.828	534.8
346.225	530.6
346.623	564.6
347.02	526
347.418	540.8
347.816	543.8
348.213	529.2
348.611	536.6
349.009	535
349.407	534.8
349.805	519.2
350.203	521.8
350.601	544.4
350.999	535.8
351.397	569.6
351.795	537.8
352.193	541
352.57	538.2
352.969	543.6
353.367	528.2
353.766	525.6
354.164	536.2
354.563	543.6
354.961	527.6
355.36	532.6
355.759	532.2
356.158	529.2
356.557	529.8
356.956	520.2
357.355	515.4
357.754	537.4
358.153	536.8
358.552	549.6
358.951	528.8
359.35	539.8
359.75	533
360.149	523
360.527	525.2
360.926	522.2
361.326	535.2
361.726	537.2
362.125	532.4
362.525	542.4
362.925	527.2
363.325	525.4
363.724	533.8
364.124	527.6
364.524	528.2
364.924	527.6
365.324	537.4
365.725	509.6
366.125	533.4
366.525	529.4
366.904	524.4
367.304	519
367.705	539.8
368.105	549.4
368.506	523.6
368.906	531.4
369.307	531.4
369.708	530.8
370.108	523
370.509	529
370.91	530.4
371.311	531.6
371.712	532.8
372.113	527.2
372.514	522.2
372.894	530
373.295	524.4
373.696	536.6
374.097	538.2
374.499	555.4
374.9	538.4
375.301	524
375.703	538.2
376.105	525.4
376.506	535.4
376.908	539.4
377.309	531.4
377.711	527.6
378.113	519
378.493	526.2
378.895	519.4
379.297	538.6
379.699	516
380.102	530.6
380.504	530
380.906	528.4
381.308	546.4
381.71	526.8
382.113	529.6
382.515	523.6
382.918	538.6
383.299	522.2
383.701	537.2
384.104	525
384.507	517.2
384.909	525.8
385.312	512.2
385.715	514.4
386.118	529.6
386.521	517.2
386.924	527.8
387.327	520
387.709	516.2
388.112	516.6
388.515	526
388.918	530
389.322	522.6
389.725	522.4
390.129	545.8
390.532	528.2
390.936	522
391.339	521.6
391.743	524
392.125	521.8
392.529	537.4
392.933	536.4
393.337	518.6
393.74	536
394.144	522.4
394.548	527.6
394.953	517.2
395.357	537.6
395.761	529.2
396.144	523.4
396.548	527.8
396.952	528.8
397.357	524.2
397.761	523.6
398.166	523.6
398.57	519.2
398.975	526.2
399.379	518.4
399.763	563.2
400.168	522
400.572	523.8
400.977	519.8
401.382	549
401.787	527.6
402.192	542
402.597	541.8
403.002	512
403.386	529.2
403.791	544.4
404.197	523.8
404.602	527.8
405.007	524.2
405.413	517.8
405.818	529.2
406.224	521.4
406.608	519.4
407.014	515.8
407.42	532.6
407.825	522.8
408.231	536
408.637	533.6
409.043	537.8
409.449	528.4
409.834	515.4
410.24	531.2
410.646	542.6
411.052	530.8
411.458	515.8
411.865	531.2
412.271	533.8
412.677	528.8
413.062	533.2
413.469	522.2
413.875	548
414.282	537
414.689	531.4
415.095	538.2
415.502	528.4
415.888	531.4
416.294	521
416.701	564.2
417.108	520.2
417.515	532.4
417.923	531.8
418.33	541.2
418.715	532.2
419.123	529.6
419.53	531.2
419.937	533.2
420.345	539
420.752	526
421.16	545
421.546	530.8
421.953	537.2
422.361	525.2
422.769	527.2
423.177	527
423.585	545.8
423.992	550
424.379	541.2
424.787	539.6
425.195	554.4
425.603	526.6
426.011	532.6
426.419	552.4
426.806	538.2
427.214	537
427.623	546.8
428.031	554.8
428.44	551.8
428.848	556.4
429.235	574.6
429.644	564.6
430.053	572.2
430.461	596.2
430.87	608.2
431.279	611.6
431.666	607.2
432.075	632.4
432.484	651.4
432.893	664.6
433.302	701
433.711	737.6
434.099	729.8
434.508	741.2
434.918	765
435.327	807.6
435.737	817.4
436.125	843
436.534	861
436.944	890
437.353	925
437.763	945
438.173	963.6
438.561	979
438.971	996.6
439.381	1036.2
439.791	1043.6
440.201	1053
440.589	1082
440.999	1113.4
441.409	1130.6
441.819	1122
442.23	1173
442.619	1198.8
443.029	1202.4
443.439	1224
443.85	1242.6
444.26	1246.4
444.649	1238.8
445.06	1244
445.471	1251.8
445.881	1273.4
446.292	1308
446.682	1323.2
447.092	1302.2
447.503	1367
447.914	1334.4
448.325	1345
448.715	1353.2
449.126	1350
449.537	1350.8
449.948	1350
450.338	1367
450.75	1391.6
451.161	1388.8
451.572	1391.8
451.984	1395
452.374	1382.6
452.786	1402.8
453.197	1403
453.609	1399.8
453.999	1397.4
454.411	1395.8
454.823	1412.4
455.235	1406.6
455.647	1414.6
456.037	1409.6
456.449	1394.6
456.862	1416
457.274	1411.4
457.665	1415.6
458.077	1435.4
458.489	1446.4
458.902	1428.2
459.293	1434.2
459.705	1420.6
460.118	1421.8
460.53	1437.8
460.921	1425.6
461.334	1429.8
461.747	1430.2
462.16	1432.2
462.551	1445.6
462.964	1451.2
463.377	1429
463.79	1443.6
464.182	1428
464.595	1419.6
465.008	1437.6
465.421	1428
465.813	1429
466.226	1435.8
466.64	1428.2
467.053	1475.2
467.445	1442.6
467.859	1449.4
468.272	1447.2
468.686	1454.2
469.078	1449.4
469.492	1443.6
469.906	1428.4
470.298	1449.6
470.712	1439.2
471.126	1451.2
471.54	1405.6
471.933	1435.4
472.347	1408.8
472.761	1418.8
473.175	1420
473.568	1409
473.982	1396.6
474.397	1391.6
474.79	1406.6
475.204	1393.2
475.619	1397.4
476.033	1376.8
476.426	1389.6
476.841	1364.6
477.256	1394
477.649	1357.2
478.064	1363
478.479	1360.6
478.872	1352
479.287	1345.8
479.702	1358.6
480.118	1332.8
480.511	1351
480.927	1353.2
481.342	1325.6
481.736	1335.4
482.151	1320.6
482.566	1342.2
482.96	1314.4
483.376	1331.2
483.792	1312
484.186	1306.6
484.602	1301.4
485.017	1291.2
485.412	1299.6
485.827	1284.6
486.243	1272
486.638	1293.6
487.054	1271.6
487.47	1269.8
487.865	1250.4
488.281	1250.4
488.697	1245
489.092	1229.4
489.508	1233.6
489.925	1229
490.32	1210
490.736	1227.6
491.153	1214
491.548	1218.6
491.964	1224.6
492.381	1191.6
492.776	1194.8
493.193	1189.6
493.61	1191.4
494.006	1174.6
494.422	1187.2
494.84	1166.8
495.235	1167.8
495.652	1170.8
496.069	1151.4
496.465	1128.8
496.883	1142
497.3	1164.4
497.696	1119.8
498.113	1122
498.509	1100.6
498.927	1094.8
499.344	1095.8
499.741	1090.4
500.158	1096.8
500.576	1092.8
500.973	1087.4
501.39	1077.4
501.787	1069.6
502.205	1075
502.623	1060.4
503.02	1044.6
503.438	1042.8
503.856	1049.6
504.253	1030.2
504.671	1034.6
505.068	1024.4
505.486	1022
505.905	1037.4
506.302	1013.8
506.72	1011
507.118	997.6
507.536	1002.4
507.955	995.6
508.352	1002.4
508.771	984.8
509.169	993.8
509.587	975.4
510.006	964.6
510.404	955
510.823	958.6
511.221	962.2
511.64	952.2
512.038	961.4
512.457	941.6
512.877	947.6
513.275	927
513.694	926.6
514.092	929.2
514.512	928
514.91	927.8
515.33	913.8
515.749	912.2
516.148	902.8
516.568	908.4
516.966	896
517.386	884.2
517.785	887.4
518.205	880.8
518.603	865
519.024	865.2
519.444	871.8
519.843	859.4
520.263	872.2
520.662	866.2
521.082	856
521.481	859
521.902	862.6
522.301	846
522.722	849.8
523.121	838.6
523.542	831.2
523.963	821.8
524.362	832.2
524.783	820.4
525.183	820.2
525.604	812.2
526.003	805.4
526.425	804
526.824	807.4
527.246	804.2
527.646	803
528.067	798
528.467	794.8
528.888	796.6
529.289	781.8
529.71	775.6
530.11	775.2
530.532	767.6
530.932	764.4
531.354	752.8
531.755	783.4
532.176	759.2
532.577	756
532.999	756.4
533.4	742.6
533.822	767
534.223	747.8
534.645	744.2
535.046	743
535.468	736.8
535.869	754.8
536.292	734.8
536.693	766.8
537.115	738.2
537.516	718
537.939	735.6
538.34	750
538.742	742
539.165	725.6
539.566	716.2
539.989	708.6
540.391	716.6
540.814	717.2
541.216	711.4
541.639	706.2
542.041	721.6
542.464	695.8
542.866	699.4
543.268	704.4
543.691	705
544.093	700.6
544.517	719
544.919	683.2
545.343	712.4
545.745	671.4
546.147	696.2
546.571	682.4
546.974	674.6
547.398	687.6
547.8	691.6
548.224	671.2
548.627	673.2
549.03	675.6
549.454	662.4
549.857	660.4
550.281	667.8
550.684	665.2
551.087	668.8
551.512	664.2
551.915	665.4
552.34	654.4
552.743	659.4
553.146	648.8
553.571	652
553.975	667.8
554.399	642.2
554.803	686.4
555.207	641.8
555.632	636.4
556.036	638.2
556.461	619
556.865	629.6
557.268	631.2
557.694	627.4
558.098	644.6
558.502	635
558.927	631.4
559.332	634.2
559.736	627.2
560.162	634
560.566	625.6
560.992	634.4
561.396	631.6
561.801	617.6
562.227	625.8
562.631	623.2
563.036	612.2
563.462	621.4
563.867	622.2
564.272	613
564.698	627.4
565.103	603.4
565.508	626.2
565.935	608.6
566.34	605.2
566.745	615.4
567.172	605.2
567.577	620.6
567.982	609.6
568.409	605.8
568.815	598
569.22	603.2
569.626	604.6
570.053	581.4
570.459	599.2
570.865	598.4
571.292	603
571.698	597.6
572.104	584.4
572.531	588.2
572.937	595.4
573.343	591.6
573.75	583.2
574.177	579
574.583	594.8
574.99	594.6
575.396	589.4
575.824	584.2
576.231	591.2
576.637	583.6
577.065	601.8
577.472	574
577.879	580.6
578.286	590.4
578.714	560.8
579.121	576.2
579.528	579.4
579.935	586.2
580.364	575.8
580.771	563.4
581.178	572.6
581.585	580.6
582.014	579.2
582.421	562.6
582.829	562.2
583.236	571.6
583.644	562.8
584.073	556.6
584.481	567.2
584.889	559.2
585.296	571.4
585.726	566
586.134	565
586.542	559
586.95	575.2
587.358	552
587.787	561.6
588.196	561.4
588.604	550.6
589.012	561.4
589.421	555.8
589.851	552.2
590.259	553.4
590.668	552.8
591.076	584.2
591.485	545.8
591.894	557.6
592.324	569.6
592.733	567.2
593.142	546
593.551	540.2
593.96	580.8
594.369	541.4
594.8	544.4
595.209	538
595.618	539
596.028	542.2
596.437	538.4
596.847	542.6
597.256	548.8
597.687	540.2
598.097	545.8
598.507	536
598.917	538.8
599.327	544.6
599.736	540.6
600.146	548.6
600.556	545.6
600.988	550.6
601.398	538.4
601.808	541
602.219	535.2
602.629	542.8
603.039	534.6
603.45	560.6
603.86	542.6
604.271	546.6
604.703	542.4
605.114	533
605.525	541.8
605.935	542
606.346	557.4
606.757	543
607.168	532
607.579	525.4
607.99	540.2
608.402	540.2
608.813	544.2
609.224	528.6
609.636	531.2
610.047	528.4
610.48	536.6
610.892	539.8
611.303	546.4
611.715	525
612.127	519.2
612.539	535.4
612.95	538.2
613.362	524.4
613.774	527
614.186	532.4
614.599	527
615.011	541.8
615.423	530.2
615.835	526.8
616.248	529.8
616.66	525.4
617.073	528.6
617.485	528
617.898	540.6
618.311	540.2
618.723	527.4
619.136	551.8
619.549	541.8
619.962	555.2
620.375	528.8
620.788	530.4
621.201	528.4
621.614	535.2
622.028	529
622.441	531
622.854	546
623.268	524.8
623.681	534.2
624.095	531.2
624.509	539.4
624.922	532
625.336	521.4
625.728	532.2
626.142	531.8
626.556	544.4
626.97	540.2
627.384	525.2
627.799	528.6
628.213	542.8
628.627	525.2
629.041	514.2
629.456	520.8
629.87	532
630.285	537.6
630.699	536.8
631.093	520.6
631.507	536.2
631.922	529
632.337	537.2
632.752	522
633.167	522
633.582	524.8
633.997	518.2
634.412	507.2
634.806	516.6
635.221	520
635.637	529.6
636.052	512.8
636.468	525.8
636.883	534.4
637.299	517.4
637.715	514.4
638.109	517
638.525	513.6
638.941	524.4
639.357	520
639.773	528.2
640.189	524
640.584	518.2
641	517.2
641.416	512
641.832	508.8
642.249	513.4
642.665	513.4
643.06	518.2
643.477	530.4
643.894	503.8
644.31	513.2
644.727	522
645.123	520.6
645.54	517.2
645.957	525
646.374	532
646.77	520.6
647.187	542.2
647.604	515.6
648.021	503.2
648.439	506.6
648.835	515
649.252	516.4
649.67	514
650.088	511.8
650.484	517
650.902	527
651.32	518.4
651.738	520
652.134	513.8
652.552	531.4
652.971	524.2
653.389	513.8
653.786	526.8
654.204	511.6
654.622	506.2
655.019	516.4
655.438	514
655.857	512.8
656.275	515.8
656.673	512.6
657.091	528
657.51	506.8
657.908	523.2
658.327	517.2
658.746	504.2
659.144	515.2
659.563	521.6
659.982	514.6
660.38	509.4
660.8	522.8
661.219	521
661.617	521.8
662.037	510.4
662.457	531.6
662.855	505
663.275	535.4
663.695	513.6
664.094	513.8
664.514	519.8
664.934	508
665.333	518.4
665.753	508.2
666.152	506.4
666.572	505.4
666.993	527.8
667.392	509.2
667.812	511.8
668.212	501
668.632	515.8
669.053	513.2
669.453	516.6
669.874	512.4
670.273	518
670.694	507.2
671.116	519.2
671.515	518.8
671.937	508.4
672.337	509.4
672.758	508.8
673.158	507.4
673.58	504.2
673.98	508.8
674.402	524.6
674.824	518.2
675.224	508.6
675.646	502.2
676.047	503.2
676.469	509
676.869	519.2
677.292	506.4
677.693	507.4
678.115	509.2
678.516	512.2
678.939	519.2
679.34	508.2
679.762	513.6
680.164	506.6
680.586	504.4
680.988	510.4
681.411	535.2
681.812	510
682.236	504.8
682.637	502.6
683.061	501.4
683.462	514.6
683.864	509.2
684.288	520.4
684.69	508.2
685.114	511.2
685.516	509.6
685.94	506
686.342	512.4
686.766	497.6
687.168	507.6
687.571	518.4
687.995	508.6
688.398	502
688.822	504.2
689.225	514.8
689.628	516.2
690.052	502
690.456	514.8
690.88	507.8
691.284	493
691.687	516
692.112	495.2
692.515	498.2
692.919	501.4
693.344	501.4
693.747	506.4
694.173	507
694.577	515.4
694.98	504
695.406	501.6
695.81	514.4
696.214	507.4
696.64	513
697.044	509.2
697.448	513.2
697.874	505.2
698.279	500.2
698.684	498
699.11	497.4
699.514	498.8
699.919	500.4
700.324	504.6
700.75	507.8
701.156	507
701.561	515.2
701.987	512.4
702.393	514.8
702.798	516.6
703.203	504.6
703.63	497.2
704.036	500.6
704.442	510.6
704.847	503.4
705.274	504.2
705.68	508
706.086	521.2
706.492	502.4
706.92	501.2
707.326	508
707.732	501
708.139	498.8
708.545	499.8
708.973	497.8
709.38	510.2
709.786	500.2
710.193	517.4
710.6	508
711.028	499.6
711.435	512.6
711.842	507.8
712.249	505.4
712.656	506.8
713.064	511.2
713.492	502
713.9	513.8
714.307	512.8
714.715	503.2
715.123	510
715.53	506.8
715.938	514
716.367	508.2
716.775	495.6
717.184	505.4
717.592	504.6
718	512
718.408	532.6
718.816	543.6
719.225	506.8
719.633	506
720.042	501.4
720.472	497.2
720.881	514.2
721.29	514.6
721.699	496.4
722.108	507
722.517	506.2
722.926	507.8
723.335	517.6
723.744	503.2
724.154	508.4
724.563	508.8
724.973	502.4
725.382	499.4
725.792	505.2
726.202	495.2
726.612	512.2
727.022	502.6
727.432	508
779.813	505.6
780.223	544.6
780.634	504
781.044	502.2
781.454	504
781.865	506.4
782.276	495.2
782.686	510.4
783.097	498.8
783.508	497.6
783.919	502.6
784.33	512.8
784.741	512
785.152	499.6
785.563	493.4
785.974	499.4
786.386	504.6
786.776	494.8
787.188	508.4
787.599	499.6
788.011	506
788.423	506.4
788.835	497.6
789.247	499.4
789.659	494.8
790.071	489.6
790.483	536.8
790.874	494.6
791.286	500
791.699	503
792.111	510.2
792.524	510.4
792.937	501.2
793.349	488.8
793.741	497
794.154	500
794.567	521.8
794.98	505.6
795.393	492.4
795.785	512.8
796.198	498.8
796.612	503.2
797.026	504.6
797.439	491.2
797.831	505.4
798.245	497.2
798.659	502.2
799.073	495.6
799.487	493.6
799.88	499.2
800.294	504.4
800.708	503
801.123	498
801.516	512.4
801.93	490.8
802.345	495.4
802.76	500
803.153	511.2
803.568	508.8
803.983	503.6
804.377	510.8
804.792	493.6
805.207	491.6
805.601	501
806.016	537.2
806.432	489.6
806.826	528.6
807.242	509.8
807.658	507
808.052	496.4
808.468	501.8
808.884	500
809.279	506
809.695	513
810.111	513.6
810.506	500.4
810.922	518
811.339	501.2
811.734	507.4
812.151	500.6
812.546	495.6
812.963	500
813.38	506
813.776	498
814.193	512.8
814.589	495.8
815.006	495.8
815.402	494.4
815.82	498.8
816.237	499.2
816.633	505.6
817.051	489.6
817.448	490
817.866	487.4
818.262	516.8
818.68	499.2
819.077	505.8
819.495	497.4
819.892	529.8
820.311	496.2
820.708	500.8
821.127	492.8
821.524	516.2
821.943	499.6
822.34	522.4
822.759	498
823.157	505.2
823.576	512.6
823.974	505.4
824.393	590
824.791	499.2
825.189	493.2
825.609	494
826.007	501.6
826.427	494.8
826.826	498.6
827.246	505
827.644	489.8
828.043	515.8
828.463	494
828.862	508
829.261	503
829.682	488
830.081	503.4
830.502	497.8
830.901	500.8
831.301	498.8
831.722	498
832.121	504.2
832.521	501
832.943	494.8
833.342	503.6
833.742	493.6
834.164	492.2
834.564	487.2
834.965	498
835.386	499.2
835.787	493.8
836.188	501.6
836.588	498.6
837.01	504.8
837.411	491.2
837.812	506.4
838.213	498.6
838.636	492.8
839.037	557.6
839.438	497
839.84	497.8
840.263	495.2
840.664	501.8
841.066	496.2
841.468	500.8
841.891	496.4
842.293	504.8
842.695	503.6
843.098	506.8
843.5	498.8
843.902	502.4
844.326	494.6
844.729	495.8
845.131	502.8
845.534	500.6
845.937	500.2
846.34	508
846.764	490.4
847.167	498.2
847.571	494
847.974	504.4
848.377	497.4
848.781	535.8
849.184	508.8
849.588	499.8
849.992	498.2
850.396	501.2
850.821	511.6
851.225	500.2
851.63	486.4
852.034	510.8
852.438	496.4
852.843	567.4
853.247	496.4
853.652	500.8
854.057	515.8
854.462	506.2
854.867	497.2
855.272	525.4
855.677	507.8
856.082	503.6
856.487	502.2
856.893	503.6
857.298	501.8
857.704	495.4
858.11	502.6
858.516	504.6
858.922	503.2
859.328	513
859.734	505.2
860.14	509
860.525	502.2
860.931	490.6
861.338	501
861.745	505.8
862.151	506.4
862.558	500.4
862.965	490.8
863.372	494
863.779	495.2
864.186	517.4
864.572	506
864.98	515.4
865.387	526.6
865.795	493.8
866.203	509.6
866.61	500.8
867.018	506.8
867.405	500.8
867.813	498.4
868.221	497.6
868.63	492.6
869.038	506
869.425	528.4
869.834	501.6
870.243	498
870.652	499.6
871.039	496.8
871.448	498.2
871.857	498.4
872.266	502.8
872.654	501.2
873.064	496.4
873.473	504.4
873.883	492.6
874.271	492.8
874.681	506.6
875.091	486.4
875.48	502
875.89	507.6
876.3	496.4
876.689	488.4
877.1	493.4
877.51	496.8
877.9	523.2
878.31	492.6
878.721	522.8
879.111	500.4
879.522	490.2
879.933	491
880.323	488
880.734	491.8
881.125	501.8
881.536	493.6
881.948	493
882.338	491.8
882.75	493
883.141	492.6
883.553	501.6
883.944	518.8
884.356	505.4
884.769	491.2
885.16	495
885.573	498.6
885.964	498.8
886.377	499.6
886.768	490.8
887.181	497.2
887.573	493.2
887.987	494.6
888.378	511.4
888.792	498
889.184	537.6
889.598	490.6
889.99	490.6
890.383	494.6
890.797	483.8
891.19	508.4
891.604	498.6
891.997	487.6
892.411	492.4
892.805	485.6
893.198	487
893.613	486.4
894.006	493.4
894.421	486.8
894.815	499.6
895.209	485.4
895.624	528.2
896.018	502
896.412	486.4
896.828	496.6
897.222	500.8
897.617	493
898.033	507.6
898.427	498.4
898.822	492.8
899.239	492
899.634	482.8
900.029	506
900.424	489.6
900.841	488.6
901.236	508.8
901.632	504
902.027	547.8
902.445	504.6
902.841	499.2
903.237	500.6
903.633	505.4
904.05	503.2
904.447	506.6
904.843	505.8
905.24	494.8
905.636	489.6
906.033	500
906.451	509.6
906.848	490.8
907.246	495.2
907.643	494.4
908.04	508.8
908.438	509.6
908.835	499.4
909.254	498.6
909.652	495.4
910.05	494.4
910.448	487.8
910.846	501.6
911.244	489
911.643	497.2
912.041	497.2
912.44	505.4
912.839	489.4
913.237	495.4
913.636	485.4
914.035	506.2
914.434	481.4
914.834	502.4
915.233	497
915.633	502
916.032	482
916.432	492.4
916.832	506.2
917.232	494.6
917.632	490
918.032	496.6
918.432	486.6
918.833	498.8
919.233	495.2
919.634	482.6
920.035	505.4
920.436	492.2
920.837	504.2
921.238	499.2
921.639	495.4
922.019	502.6
922.42	499
922.822	496.2
923.224	501.6
923.625	493.4
924.027	497.8
924.429	513.6
924.81	499
925.212	507.6
925.615	500
926.017	496.8
926.42	502.4
926.801	493.4
927.204	499.6
927.607	495.6
928.01	514.2
928.413	498
928.795	481.6
929.199	494.8
929.602	485.4
930.006	497
930.388	495.8
930.792	498.6
931.196	491
931.579	523
931.983	488.2
932.388	533.2
932.771	484
933.176	480.6
933.58	492
933.964	497.8
934.369	487.2
934.774	494.6
935.158	498.2
935.563	490.8
935.947	498.8
936.353	495.4
936.759	487.4
937.143	495.6
937.549	485.4
937.934	504
938.34	508.8
938.746	491.6
939.131	496.4
939.538	491
939.923	497.2
940.33	489
940.716	499
941.123	502.2
941.508	497
941.916	510.4
942.302	494.8
942.709	485.8
943.096	497.2
943.503	494.2
943.89	497
944.298	491.4
944.685	516
945.072	495.4
945.48	512.2
945.867	490.2
946.276	488.2
946.663	507.8
947.051	513.2
947.46	500.6
947.848	498.2
948.257	494.4
948.645	494.4
949.033	488
949.443	484.6
949.831	528.2
950.22	490.2
950.63	498.4
951.018	517.6
951.407	492.4
951.796	484
952.207	502
952.596	502.8
952.985	493.2
953.375	524.8
953.786	489.6
954.176	487.6
954.566	501.2
954.956	488.2
955.367	494.2
955.758	511
956.148	491.8
956.539	507.8
956.929	490
957.341	488.2
957.732	490.4
958.123	498
958.515	483.8
958.906	500.2
959.297	485.4
959.689	488.8
960.102	490.6
960.494	503.2
960.886	492
961.278	490
961.67	506.2
962.062	529.2
962.455	497
962.847	491
963.24	491.2
963.633	494.6
964.026	489.4
964.419	494.6
964.812	501
965.206	493.6
965.599	495.8
965.993	497.4
966.386	488.8
966.78	501.8
967.174	503.4
967.569	499.6
967.963	487
968.357	491
968.752	493
969.146	488.8
969.541	489.4
969.936	492.8
970.331	494
970.705	491.6
971.1	489
971.496	488.8
971.892	478
972.287	484.8
972.683	494.4
973.079	487.8
973.454	500.6
973.85	487.8
974.247	491.2
974.643	512
975.04	489.8
975.415	484.6
975.812	492.2
976.209	501.6
976.607	478.4
976.982	495.8
977.38	503.6
977.778	493
978.175	488.4
978.552	490.8
978.95	499.6
979.348	502.6
979.725	534
980.123	494.2
980.522	489.4
980.899	486.2
981.298	487.6
981.697	497
982.075	497.2
982.474	489.4
982.852	499.2
983.251	501
983.651	487.2
984.029	497
984.429	495
984.808	483.4
985.208	485.2
985.609	486.6
985.987	478.4
986.388	484.4
986.768	498.6
987.168	485.8
987.548	494.6
987.949	497.2
988.329	498.6
988.731	483.6
989.111	489.6
989.491	484.4
989.893	494.6
990.273	493.8
990.676	476.4
991.057	487
991.459	487.4
991.84	494
992.221	488
992.624	506.4
993.006	495.6
993.388	491.4
993.791	496.8
994.173	495
994.576	510.8
994.959	492
995.341	481
995.724	497.6
996.128	489.4
996.511	496
996.894	484.4
997.298	503.6
997.681	499
998.065	491.6
998.448	482.8
998.854	498.6
999.237	483.8
999.621	500.2
1000.01	504
1000.39	502.4
1000.8	492
1001.18	494.6
1001.56	499
1001.95	491
1002.33	489.4
1002.72	488.6
1003.13	489.2
1003.51	492.8
1003.9	489
1004.28	501.6
1004.67	489.2
1005.06	489.2
1005.44	513.6
1005.83	480.8
1006.21	492.4
1006.6	490.2
1006.99	491
1007.37	494.6
1007.76	492
1060.12	485.8
1060.51	483.6
1060.89	496.6
1061.28	498
1061.67	505.8
1062.06	497.4
1062.45	498.4
1062.83	483.4
1063.22	499.2
1063.61	522.8
1064	497.2
1064.39	494.8
1064.78	492.6
1065.14	498
1065.53	487.4
1065.92	491.8
1066.31	487.8
1066.7	494
1067.09	498.4
1067.46	498
1067.85	487
1068.24	488.2
1068.63	491
1069.02	485.4
1069.39	492.6
1069.78	494.4
1070.17	495.2
1070.57	483.4
1070.93	492.6
1071.33	493.4
1071.72	492.2
1072.11	491.2
1072.48	492
1072.87	494.6
1073.26	496.4
1073.64	493
1074.03	485.6
1074.4	489
1074.79	489.6
1075.19	486.8
1075.56	490
1075.95	486.4
1076.34	495.8
1076.72	487.2
1077.11	497.6
1077.48	491
1077.88	493
1078.25	487.4
1078.64	497.4
1079.02	491.8
1079.41	496.4
1079.78	486.4
1080.18	483.8
1080.55	541.4
1080.95	483.8
1081.32	484.2
1081.72	493.2
1082.09	492.4
1082.49	481
1082.86	487
1083.24	483
1083.63	485.6
1084.01	491.2
1084.38	497.4
1084.78	480
1085.16	498
1085.55	503.8
1085.93	504.2
1086.31	481
1086.7	511.4
1087.08	495
1087.46	491
1087.83	479.4
1088.23	499
1088.61	488.8
1088.99	495.6
1089.36	489.6
1089.76	491
1090.14	493
1090.52	483.4
1090.9	493.6
1091.27	498.6
1091.67	505.6
1092.05	497.4
1092.43	484.8
1092.81	495.2
1093.19	495
1093.57	490.6
1093.95	488
1094.35	494.8
1094.73	498
1095.11	491.2
1095.49	487
1095.87	490.6
1096.25	506
1096.63	498.6
1097.01	483.8
1097.39	495.4
1097.77	494.2
1098.15	492.8
1098.53	487.6
1098.91	489.6
1099.29	491.6
1099.68	504.8
1100.06	499.4
1100.44	489.2
1100.82	494.4
1101.18	494.2
1101.56	492.8
1101.95	485.8
1102.33	489.6
1102.71	488.6
1103.1	488
1103.48	473.4
1103.86	484.6
1104.22	496.4
1104.61	484.6
1104.99	483.8
1105.38	492
1105.76	493.6
1106.12	482.4
1106.51	517.8
1106.89	498.6
1107.26	494.6
1107.64	495.4
1108.03	488.8
1108.41	498.4
1108.78	492.6
1109.16	490.4
1109.55	493.6
1109.91	485.8
1110.3	480.2
1110.69	502.8
1111.05	483.4
1111.44	480.8
1111.8	490.2
1112.19	495.6
1112.58	487.6
1112.94	481.8
1113.33	478.2
1113.7	486.6
1114.09	493.2
1114.45	479.4
1114.84	484
1115.21	494.4
1115.6	482
1115.96	492.6
1116.35	489.6
1116.72	481.8
1117.11	491
1117.48	482.6
1117.85	482.4
1118.24	491.8
1118.6	490.8
1118.99	492.2
1119.36	494.2
1119.73	490
1120.12	494.2
1120.49	478
1120.86	492.6
1121.25	488
1121.62	485.2
1121.99	483.8
1122.38	491
1122.76	492
1123.13	488.8
1123.5	488
1123.89	499.6
1124.26	479
1124.63	492.6
1125	491
1125.4	474
1125.77	482.8
1126.14	480.4
1126.51	489.6
1126.88	487
1127.26	486
1127.63	473
1128.02	486.2
1128.4	481.8
1128.77	488
1129.14	488
1129.52	486
1129.89	490.4
1130.26	480.4
1130.64	477.6
1131.01	484.8
