#lambda/nm	C1
208.295	468.2
208.67	433.6
209.045	397.8
209.419	402.6
209.794	540.2
210.169	522.2
210.544	619.8
210.919	540.6
211.295	535.4
211.67	538.2
212.045	530.8
212.421	531.8
212.796	559
213.172	524.8
213.547	525
213.923	541.6
214.299	534.6
214.675	540.8
215.051	535.4
215.427	541
215.803	552.8
216.179	538.8
216.555	528
216.932	548.8
217.308	536
217.684	535.8
218.061	542.8
218.438	535
218.814	529.8
219.191	537.4
219.568	530.4
219.945	527.6
220.322	540
220.699	532.2
221.076	537.2
221.453	533
221.83	524
222.208	529.4
222.585	527.2
222.962	527
223.34	533.6
223.717	533.4
224.095	533.6
224.473	532.2
224.851	520
225.229	524.4
225.607	541.4
225.985	518.8
226.363	538.8
226.741	537.6
227.119	533.2
227.497	541
227.876	522
228.254	530.2
228.633	536.6
229.011	533
229.39	539.4
229.769	533.4
230.148	535.8
230.527	555.8
230.905	535.2
231.284	534.6
231.664	541.4
232.043	548.4
232.422	539.4
232.801	535.8
233.181	540.6
233.56	538.6
233.94	538.2
234.319	524.2
234.699	535.8
235.079	566.2
235.458	573.2
235.838	553.8
236.218	533.4
236.598	530
236.978	534.8
237.358	526.4
237.738	525.6
238.119	533.6
238.499	525.8
238.88	535
239.26	544.6
239.641	522.4
240.021	526.2
240.402	532.2
240.783	534.8
241.163	530.2
241.544	533.4
241.925	536.6
242.306	541.6
242.687	534
243.069	538.4
243.45	546.2
243.831	531.4
244.212	538
244.594	564.8
244.975	538.8
245.357	543.8
245.739	532.4
246.12	530.8
246.502	542.2
246.884	532.2
247.266	526.6
247.648	545
248.03	560.6
248.412	541.2
248.794	541.4
249.176	531
249.559	547.2
249.941	532.8
250.323	522.8
250.706	527.2
251.089	538
251.471	537
251.854	537.6
252.237	542.2
252.62	548.6
253.002	531.8
253.385	538.4
253.769	543.6
254.152	532
254.535	537.2
254.918	525.4
255.301	531.2
255.685	519
256.068	522.6
256.452	556.8
256.835	549.2
257.219	537.6
257.603	542.2
257.986	530.8
258.37	532.4
258.754	534.6
259.138	542.8
259.522	545.8
259.906	530
260.29	535.8
260.675	537.6
261.059	534.6
261.443	529.8
261.828	537.6
262.212	542.4
262.597	528.2
262.981	532
263.366	541.6
263.751	543.6
264.136	528.2
264.521	526
264.906	529.4
265.291	540.2
265.676	533
266.061	534.6
266.446	547
266.831	533.4
267.217	545.2
267.602	541
267.987	543.6
268.373	535.6
268.759	545.4
269.144	542.4
269.53	536.4
269.916	529.8
270.302	536.8
270.688	536.6
271.074	538
271.46	546
271.846	562.6
272.232	534
272.618	530.4
273.004	532
273.391	554.2
273.777	554.2
274.164	533.2
274.55	538.2
274.937	539.2
275.324	532.6
275.71	543.8
276.097	539.8
276.484	522.8
276.871	537.2
277.258	537
277.645	528.8
278.032	537.8
278.419	526.8
278.807	532
279.194	523.2
279.581	527
279.969	543.8
280.356	535.2
280.744	539.2
281.131	554.2
281.519	540
281.907	528.4
282.295	532.8
282.682	545
283.07	538.8
283.458	543.4
283.846	540.2
284.235	543.6
284.623	546.2
285.011	527.6
285.399	537.2
285.788	531.6
286.176	528.2
286.565	548.2
286.953	524.2
287.342	533
287.731	530.8
288.119	526.6
288.508	529.8
288.897	539
289.286	525.8
289.675	533.8
290.064	537
290.453	528.2
290.821	539
291.21	548.6
291.599	532
291.989	537.2
292.378	537
292.768	546
293.157	538.4
293.547	542.4
293.936	544.2
294.326	535.8
294.716	533.4
295.106	539.4
295.496	540.2
295.886	540.8
296.276	533.4
296.666	534
297.056	535.6
297.446	534.2
297.836	547
298.227	536.2
298.617	530.2
299.008	546.2
299.398	538.4
299.789	533.6
300.179	526.4
300.57	546.6
300.961	536.4
301.352	539.2
301.742	540.6
302.133	534.6
302.524	538.2
302.915	534.4
303.307	526.4
303.698	542.2
304.089	541
304.48	536
304.872	532
305.263	534.6
305.655	526.4
306.046	543.8
306.438	546
306.829	526.6
307.221	545.2
307.613	542
308.005	545.2
308.397	544.6
308.789	558.4
309.181	561.8
309.573	557
309.965	540.6
310.357	534.4
310.749	546.8
311.142	527.8
311.534	534.2
311.926	542.4
312.319	530.2
312.711	532
313.104	551.6
313.497	536
313.889	564.6
314.282	544.4
314.675	558.8
315.068	541
315.461	540.6
315.854	559.8
316.247	540.8
316.64	531
317.033	533.2
317.405	547.2
317.798	533.2
318.192	531.2
318.585	527.2
318.979	540
319.372	529.8
319.766	532.8
320.16	542.6
320.553	549.2
320.947	548.2
321.341	532.6
321.735	525.8
322.129	516.8
322.523	548.8
322.917	522.2
323.311	541.2
323.705	536.8
324.099	536.4
324.494	547
324.888	533.4
325.282	535
325.677	546.6
326.071	542.2
326.466	546.4
326.861	540.8
327.255	545.4
327.65	551.6
328.045	551
328.44	527.4
328.835	531.4
329.23	529.4
329.625	549
330.02	531
330.415	552.4
330.81	535
331.206	538.8
331.601	531.4
331.996	542.8
332.37	545.6
332.766	522.4
333.161	559.2
333.557	541
333.953	542
334.348	869.6
334.744	540.2
335.14	524.6
335.536	528.6
335.932	544
336.328	533.4
336.724	535
337.12	523.8
337.516	536
337.913	534.6
338.309	540.4
338.705	533.2
339.102	537
339.498	534.4
339.895	548.6
340.291	534.6
340.688	547.6
341.085	530.8
341.481	533.4
341.878	536.4
342.275	550.6
342.672	521.4
343.069	534.8
343.466	526.4
343.842	548.2
344.239	532
344.636	535.2
345.033	531.4
345.431	528
345.828	534
346.225	531
346.623	560
347.02	532.2
347.418	541.6
347.816	545.2
348.213	526.4
348.611	536.6
349.009	528.4
349.407	545.6
349.805	526.8
350.203	518.2
350.601	549.2
350.999	526.8
351.397	575
351.795	523.6
352.193	541.8
352.57	533.8
352.969	536.4
353.367	519.8
353.766	528
354.164	525.6
354.563	541.4
354.961	530
355.36	527.8
355.759	530.8
356.158	525.6
356.557	519.2
356.956	522.8
357.355	524.6
357.754	535.8
358.153	534.2
358.552	548
358.951	534.8
359.35	533
359.75	521.2
360.149	524.6
360.527	509.2
360.926	522.8
361.326	533.4
361.726	525
362.125	521.4
362.525	542
362.925	527.2
363.325	535.2
363.724	533.4
364.124	527
364.524	526.2
364.924	532.6
365.324	539.4
365.725	509.8
366.125	539.8
366.525	532.4
366.904	518.8
367.304	522.8
367.705	544.2
368.105	543.2
368.506	526.4
368.906	528.2
369.307	532.4
369.708	537.4
370.108	517.2
370.509	539
370.91	522.4
371.311	537.8
371.712	528.4
372.113	529.6
372.514	515.2
372.894	521.8
373.295	520.4
373.696	532
374.097	536
374.499	547.4
374.9	530
375.301	522.4
375.703	530.6
376.105	514.6
376.506	536
376.908	534
377.309	524.2
377.711	528
378.113	521
378.493	534.2
378.895	524
379.297	539
379.699	519.8
380.102	528
380.504	529
380.906	516.2
381.308	553.4
381.71	523.6
382.113	538
382.515	523.6
382.918	528.6
383.299	524.4
383.701	533.6
384.104	528.4
384.507	511.4
384.909	521.6
385.312	520.8
385.715	517
386.118	521
386.521	516
386.924	536.2
387.327	527.8
387.709	518
388.112	514.8
388.515	533.4
388.918	520.8
389.322	531
389.725	522.8
390.129	543.8
390.532	536.8
390.936	520.2
391.339	521.2
391.743	531
392.125	513.6
392.529	542.2
392.933	536.8
393.337	532.4
393.74	524.4
394.144	524.8
394.548	522.4
394.953	523.8
395.357	532.8
395.761	527
396.144	527
396.548	525.4
396.952	533.6
397.357	525.6
397.761	517.2
398.166	528
398.57	530.6
398.975	515.4
399.379	524.6
399.763	567.2
400.168	529.4
400.572	526.4
400.977	523
401.382	539
401.787	533.2
402.192	537.4
402.597	542.4
403.002	518.8
403.386	533.6
403.791	544
404.197	525.4
404.602	526.6
405.007	526
405.413	523.6
405.818	527.6
406.224	522.6
406.608	521.4
407.014	522.8
407.42	538.6
407.825	526
408.231	533.4
408.637	532
409.043	537.4
409.449	525
409.834	525
410.24	525
410.646	536.4
411.052	540.6
411.458	528.6
411.865	531.8
412.271	532
412.677	527
413.062	538.2
413.469	518.8
413.875	551.4
414.282	532
414.689	533.2
415.095	530.6
415.502	524.4
415.888	518.2
416.294	514
416.701	561
417.108	523
417.515	530
417.923	524.6
418.33	545.8
418.715	530.4
419.123	519.4
419.53	531.4
419.937	521.2
420.345	536.8
420.752	524.2
421.16	533.8
421.546	536
421.953	527.4
422.361	518.8
422.769	525.6
423.177	518
423.585	547
423.992	540
424.379	538.6
424.787	541
425.195	542.2
425.603	531.4
426.011	536.6
426.419	535.8
426.806	527.6
427.214	530.4
427.623	541
428.031	550.8
428.44	536.4
428.848	560
429.235	550.4
429.644	552.8
430.053	560.6
430.461	578
430.87	596
431.279	590.2
431.666	595.6
432.075	600.2
432.484	627.6
432.893	643.6
433.302	656.4
433.711	689.2
434.099	688.8
434.508	694
434.918	714.6
435.327	746.2
435.737	757.6
436.125	783.2
436.534	806.8
436.944	823.8
437.353	856.4
437.763	877.8
438.173	875.4
438.561	911.6
438.971	921
439.381	936.6
439.791	964
440.201	972
440.589	1008.4
440.999	1027.6
441.409	1036
441.819	1029.4
442.23	1059.8
442.619	1066.6
443.029	1079.6
443.439	1102.8
443.85	1114
444.26	1139
444.649	1132
445.06	1128.6
445.471	1139.8
445.881	1152.2
446.292	1190.2
446.682	1196.2
447.092	1169.8
447.503	1229.2
447.914	1193.6
448.325	1209.4
448.715	1213.8
449.126	1208.4
449.537	1219.2
449.948	1237.4
450.338	1226.4
450.75	1237.4
451.161	1233.8
451.572	1234.4
451.984	1239
452.374	1225.2
452.786	1247.4
453.197	1253
453.609	1253.4
453.999	1243.4
454.411	1267
454.823	1273.6
455.235	1267.8
455.647	1252
456.037	1279
456.449	1269.6
456.862	1263.8
457.274	1281.8
457.665	1264.4
458.077	1277.2
458.489	1301.2
458.902	1290.2
459.293	1285.6
459.705	1273.4
460.118	1289.6
460.53	1283
460.921	1279.8
461.334	1284.4
461.747	1292.2
462.16	1296.4
462.551	1297.6
462.964	1294
463.377	1273.6
463.79	1282.2
464.182	1289.2
464.595	1281.6
465.008	1269.2
465.421	1295.8
465.813	1283.4
466.226	1283.6
466.64	1271.6
467.053	1321
467.445	1286.4
467.859	1296
468.272	1294.4
468.686	1292.2
469.078	1288.2
469.492	1278.8
469.906	1288.8
470.298	1295
470.712	1281.4
471.126	1300.8
471.54	1275.8
471.933	1280.8
472.347	1269.8
472.761	1281
473.175	1259.4
473.568	1269
473.982	1265
474.397	1262.2
474.79	1257.6
475.204	1258.2
475.619	1249.2
476.033	1255
476.426	1251.2
476.841	1233.4
477.256	1241.6
477.649	1221.8
478.064	1217.6
478.479	1213.4
478.872	1211.2
479.287	1211.8
479.702	1209.4
480.118	1214.4
480.511	1200.8
480.927	1203.6
481.342	1199.6
481.736	1197.2
482.151	1184.4
482.566	1201
482.96	1193.2
483.376	1190.8
483.792	1185
484.186	1176
484.602	1181.8
485.017	1161.4
485.412	1172.4
485.827	1161.2
486.243	1149.4
486.638	1175
487.054	1158
487.47	1156.4
487.865	1142.6
488.281	1115.2
488.697	1124
489.092	1115.4
489.508	1109.8
489.925	1122.6
490.32	1100.2
490.736	1108.2
491.153	1114.2
491.548	1099.6
491.964	1093.6
492.381	1077.8
492.776	1095
493.193	1085.8
493.61	1076.2
494.006	1068.8
494.422	1068.8
494.84	1052.2
495.235	1055.4
495.652	1059.4
496.069	1064.2
496.465	1030
496.883	1049.6
497.3	1053.4
497.696	1026.6
498.113	1039
498.509	1005
498.927	1000
499.344	1006.4
499.741	1004.4
500.158	997.8
500.576	1016
500.973	986
501.39	991.6
501.787	990.4
502.205	985.4
502.623	972.4
503.02	955.4
503.438	959.2
503.856	964.8
504.253	953.6
504.671	952.2
505.068	943.4
505.486	938.4
505.905	956.2
506.302	930.2
506.72	933.4
507.118	922.8
507.536	922.2
507.955	914.4
508.352	916.2
508.771	918.8
509.169	908.2
509.587	896.2
510.006	880.6
510.404	893.2
510.823	885.4
511.221	880
511.64	867
512.038	882.4
512.457	871.2
512.877	874
513.275	854.6
513.694	860
514.092	855.4
514.512	855.4
514.91	854.8
515.33	836.4
515.749	848.6
516.148	854.8
516.568	837.8
516.966	829.4
517.386	832
517.785	825.2
518.205	821.6
518.603	816.6
519.024	798.4
519.444	809.4
519.843	810.2
520.263	819.4
520.662	808.4
521.082	794
521.481	792.6
521.902	807.6
522.301	792.6
522.722	778.8
523.121	786.2
523.542	772.2
523.963	767
524.362	776
524.783	768.2
525.183	765.8
525.604	772.4
526.003	758.6
526.425	744.8
526.824	762.6
527.246	761.4
527.646	760.6
528.067	760.2
528.467	742
528.888	758.6
529.289	738.2
529.71	733.6
530.11	733.4
530.532	722.8
530.932	726.2
531.354	718.2
531.755	756.8
532.176	725.4
532.577	708
532.999	710.6
533.4	706
533.822	723.6
534.223	713
534.645	709.8
535.046	700.4
535.468	712.8
535.869	721.8
536.292	699
536.693	718.8
537.115	703.6
537.516	688.2
537.939	703.4
538.34	710.8
538.742	704
539.165	689
539.566	687.6
539.989	679.8
540.391	686.2
540.814	684.2
541.216	691.4
541.639	689.4
542.041	696.2
542.464	678.8
542.866	676.2
543.268	665.8
543.691	673.6
544.093	670.4
544.517	684.6
544.919	673.2
545.343	681.2
545.745	651.2
546.147	665.8
546.571	663.8
546.974	648.4
547.398	650
547.8	658.4
548.224	651
548.627	640
549.03	655.2
549.454	638.6
549.857	635.4
550.281	634
550.684	632.8
551.087	657
551.512	637.8
551.915	637.6
552.34	632.2
552.743	628.4
553.146	627
553.571	632.6
553.975	642.8
554.399	621.6
554.803	671.4
555.207	620.2
555.632	618
556.036	625.6
556.461	617.2
556.865	627.6
557.268	613
557.694	608.2
558.098	627.8
558.502	612.2
558.927	614.6
559.332	607.8
559.736	611.8
560.162	609
560.566	608.2
560.992	622.4
561.396	607.4
561.801	606.8
562.227	605.4
562.631	603.4
563.036	602
563.462	608
563.867	605.8
564.272	587.6
564.698	606
565.103	591.4
565.508	609.6
565.935	591.2
566.34	592.4
566.745	602.8
567.172	593.2
567.577	607.8
567.982	601.6
568.409	586.4
568.815	573.8
569.22	583
569.626	601
570.053	570.8
570.459	589.2
570.865	587.8
571.292	589.6
571.698	580.4
572.104	566
572.531	576
572.937	592.8
573.343	578
573.75	572.2
574.177	578
574.583	575.2
574.99	571.2
575.396	582
575.824	581.2
576.231	576.6
576.637	570
577.065	593
577.472	563.8
577.879	571
578.286	584.4
578.714	559.4
579.121	558.6
579.528	574.2
579.935	573.2
580.364	571.6
580.771	551.2
581.178	560
581.585	562.2
582.014	563
582.421	563.4
582.829	558.2
583.236	572.2
583.644	557.8
584.073	552.8
584.481	557.6
584.889	550.8
585.296	557
585.726	563.4
586.134	547.6
586.542	554.4
586.95	567.4
587.358	542.2
587.787	556.6
588.196	546.6
588.604	550
589.012	556.6
589.421	540.4
589.851	541.4
590.259	550.2
590.668	541
591.076	578.4
591.485	546.2
591.894	553.4
592.324	555
592.733	555
593.142	537.6
593.551	540.4
593.96	559.4
594.369	536.4
594.8	537.8
595.209	544.4
595.618	523.8
596.028	532.4
596.437	533
596.847	543.4
597.256	536.2
597.687	543.6
598.097	538.6
598.507	533
598.917	542.2
599.327	543.2
599.736	532
600.146	545.6
600.556	539.4
600.988	552
601.398	530.6
601.808	540.4
602.219	532.6
602.629	550
603.039	531.8
603.45	556.4
603.86	543.6
604.271	544.8
604.703	533
605.114	533.2
605.525	534.6
605.935	533.8
606.346	557
606.757	533
607.168	534.4
607.579	526.4
607.99	537.6
608.402	533.4
608.813	524.2
609.224	523
609.636	527.2
610.047	520
610.48	531.4
610.892	536.6
611.303	531.4
611.715	522.4
612.127	528.2
612.539	526.6
612.95	532.6
613.362	515.8
613.774	525.2
614.186	524.2
614.599	527.2
615.011	535
615.423	533.4
615.835	525.8
616.248	525.4
616.66	533.4
617.073	524
617.485	531.8
617.898	538.4
618.311	529.4
618.723	528.6
619.136	546.6
619.549	537
619.962	542
620.375	530.8
620.788	529.8
621.201	531
621.614	533.2
622.028	529.6
622.441	536.2
622.854	536.2
623.268	524
623.681	529.6
624.095	521.8
624.509	541.8
624.922	537.4
625.336	518
625.728	525
626.142	537.4
626.556	541.4
626.97	539.6
627.384	524.4
627.799	529.4
628.213	526.6
628.627	524.2
629.041	527.2
629.456	522.8
629.87	522.8
630.285	533
630.699	533.2
631.093	520.2
631.507	526.8
631.922	529.8
632.337	537
632.752	523.4
633.167	528.8
633.582	524
633.997	516
634.412	517
634.806	524
635.221	515.6
635.637	536
636.052	509.6
636.468	527.4
636.883	542
637.299	523.2
637.715	515
638.109	523.8
638.525	513.2
638.941	532.8
639.357	527.2
639.773	530
640.189	522.4
640.584	524.8
641	525.8
641.416	511.2
641.832	516
642.249	512.8
642.665	521.2
643.06	525.2
643.477	523.6
643.894	512.6
644.31	519.4
644.727	514.4
645.123	518
645.54	514.8
645.957	521
646.374	530.2
646.77	512
647.187	540.2
647.604	515.2
648.021	506.6
648.439	510.2
648.835	519.4
649.252	512.6
649.67	519.4
650.088	522.8
650.484	520.6
650.902	522.2
651.32	523.8
651.738	517.4
652.134	527.2
652.552	535.2
652.971	524.4
653.389	514.2
653.786	523.6
654.204	526.8
654.622	514.2
655.019	522.4
655.438	525.6
655.857	522
656.275	519.6
656.673	512.8
657.091	530.2
657.51	511.8
657.908	516.4
658.327	525.2
658.746	510.8
659.144	518.8
659.563	525.2
659.982	518
660.38	503.8
660.8	523
661.219	517.4
661.617	509.8
662.037	518
662.457	524.4
662.855	503.4
663.275	534.2
663.695	509
664.094	511
664.514	521
664.934	512
665.333	520.4
665.753	499.2
666.152	497.6
666.572	510.6
666.993	525.2
667.392	505.8
667.812	510.8
668.212	512
668.632	516.6
669.053	504.4
669.453	509.2
669.874	514.8
670.273	512.8
670.694	509.8
671.116	516.6
671.515	519.6
671.937	507.8
672.337	511.6
672.758	510.6
673.158	516.2
673.58	501
673.98	511.6
674.402	520.8
674.824	510.4
675.224	510.4
675.646	505.2
676.047	507.8
676.469	505.6
676.869	515
677.292	506.6
677.693	504.4
678.115	510.4
678.516	506
678.939	507
679.34	507.4
679.762	513.4
680.164	508.4
680.586	512.2
680.988	513.4
681.411	528.2
681.812	511.6
682.236	506.4
682.637	498
683.061	498.6
683.462	509.4
683.864	502.8
684.288	507.4
684.69	499
685.114	516
685.516	513.4
685.94	501.4
686.342	515.8
686.766	499
687.168	513.6
687.571	519.8
687.995	514
688.398	503.4
688.822	506.6
689.225	511.8
689.628	519.6
690.052	511.8
690.456	506.8
690.88	511.4
691.284	502.6
691.687	514.8
692.112	498.8
692.515	502.6
692.919	511.4
693.344	505
693.747	498.8
694.173	501.2
694.577	516.2
694.98	510.2
695.406	512
695.81	503.2
696.214	508.2
696.64	506.8
697.044	505.2
697.448	516.2
697.874	507.8
698.279	508.8
698.684	495.8
699.11	503.4
699.514	507.4
699.919	507.6
700.324	499.6
700.75	504
701.156	506.8
701.561	512.8
701.987	511
702.393	518.4
702.798	512.8
703.203	502.4
703.63	508.6
704.036	503.2
704.442	498.6
704.847	495.6
705.274	497.6
705.68	505.2
706.086	500
706.492	489
706.92	509.2
707.326	502.6
707.732	492.4
708.139	495.8
708.545	492
708.973	496
709.38	497.4
709.786	488.8
710.193	514.6
710.6	504.2
711.028	493.8
711.435	506.4
711.842	498
712.249	501.2
712.656	497.8
713.064	511.4
713.492	492.6
713.9	492.6
714.307	505
714.715	506.8
715.123	506
715.53	505.2
715.938	510
716.367	504.8
716.775	494.6
717.184	494.6
717.592	495.4
718	508.2
718.408	528
718.816	536.2
719.225	501.6
719.633	500.8
720.042	498.8
720.472	503.4
720.881	522.8
721.29	504.4
721.699	497.8
722.108	513.2
722.517	501.6
722.926	497.6
723.335	513.4
723.744	500.8
724.154	499
724.563	503.8
724.973	506.4
725.382	508.8
725.792	506.6
726.202	496.8
726.612	508.2
727.022	497.4
727.432	498.2
779.813	494.8
780.223	535.2
780.634	496.2
781.044	501.2
781.454	502.2
781.865	510.2
782.276	497.8
782.686	512.2
783.097	497.6
783.508	497.8
783.919	501.8
784.33	514
784.741	515.6
785.152	503.6
785.563	494.8
785.974	493
786.386	513.4
786.776	501
787.188	508.4
787.599	499.8
788.011	504.6
788.423	504.6
788.835	504.2
789.247	490.2
789.659	496
790.071	495.6
790.483	543.2
790.874	500.4
791.286	506.8
791.699	499
792.111	502.8
792.524	500.6
792.937	497
793.349	487.8
793.741	503.6
794.154	502
794.567	510.8
794.98	501
795.393	492.2
795.785	516.4
796.198	489
796.612	502.2
797.026	495.8
797.439	487.2
797.831	493.8
798.245	495.6
798.659	493.8
799.073	498.8
799.487	498.6
799.88	495.4
800.294	500.4
800.708	502
801.123	500.2
801.516	516.2
801.93	495.2
802.345	495.2
802.76	503.4
803.153	513.8
803.568	509.2
803.983	512.4
804.377	501
804.792	498.2
805.207	497.6
805.601	505.4
806.016	527.8
806.432	494.6
806.826	532.4
807.242	508.8
807.658	502
808.052	498.2
808.468	503
808.884	505.2
809.279	498
809.695	509.2
810.111	515
810.506	495.6
810.922	519.4
811.339	497.6
811.734	495
812.151	497.6
812.546	499.2
812.963	494
813.38	502.2
813.776	503.4
814.193	514.6
814.589	495.2
815.006	498.8
815.402	505.6
815.82	493.2
816.237	500.8
816.633	503.4
817.051	497
817.448	502.2
817.866	494.6
818.262	516.2
818.68	499.6
819.077	485
819.495	497
819.892	539.2
820.311	494.6
820.708	505.8
821.127	495.8
821.524	506.8
821.943	498.4
822.34	514.2
822.759	502.2
823.157	498.8
823.576	505.8
823.974	513
824.393	589
824.791	495.6
825.189	489.8
825.609	498.6
826.007	496
826.427	499.4
826.826	497
827.246	499.2
827.644	499.6
828.043	506.2
828.463	502.8
828.862	502.4
829.261	499
829.682	493
830.081	510.4
830.502	502.6
830.901	503.8
831.301	495.4
831.722	496
832.121	502
832.521	485.6
832.943	500.2
833.342	499.8
833.742	497.4
834.164	499.4
834.564	493.6
834.965	495.8
835.386	496.6
835.787	497.6
836.188	502.8
836.588	498.8
837.01	494.8
837.411	494.6
837.812	505.6
838.213	500
838.636	498.4
839.037	554
839.438	504.4
839.84	501.8
840.263	504.6
840.664	504.8
841.066	502.4
841.468	502.8
841.891	490.6
842.293	504.8
842.695	505.2
843.098	507.6
843.5	501.4
843.902	506.2
844.326	501.2
844.729	497.8
845.131	512.6
845.534	497.8
845.937	505.8
846.34	508.2
846.764	496.4
847.167	504.8
847.571	495.8
847.974	496
848.377	501
848.781	536.2
849.184	516
849.588	496.8
849.992	498
850.396	495.6
850.821	514
851.225	494.4
851.63	493.8
852.034	506.4
852.438	496.8
852.843	554
853.247	493.2
853.652	492.4
854.057	504.8
854.462	495
854.867	503.6
855.272	514.8
855.677	495.4
856.082	488.4
856.487	480.8
856.893	493.4
857.298	490.2
857.704	487.8
858.11	503
858.516	502
858.922	501
859.328	504.4
859.734	502.4
860.14	502.6
860.525	494
860.931	486.2
861.338	501.8
861.745	501
862.151	502.8
862.558	498.6
862.965	489.4
863.372	488
863.779	490.8
864.186	516
864.572	487
864.98	512.6
865.387	520.6
865.795	487.8
866.203	494.6
866.61	479.6
867.018	508.8
867.405	508
867.813	495
868.221	494.6
868.63	494
869.038	499.8
869.425	528.6
869.834	503.8
870.243	487.6
870.652	483
871.039	492.8
871.448	491.4
871.857	500.4
872.266	498.8
872.654	500.4
873.064	489
873.473	500.2
873.883	491.4
874.271	493.6
874.681	504.8
875.091	485.4
875.48	498.6
875.89	507.4
876.3	491.4
876.689	486.8
877.1	502.2
877.51	498.2
877.9	514.2
878.31	489.2
878.721	527
879.111	502.2
879.522	493.6
879.933	488.8
880.323	491
880.734	489.6
881.125	496.4
881.536	498
881.948	494.6
882.338	495
882.75	505.6
883.141	498.4
883.553	494.6
883.944	514
884.356	502.4
884.769	491.2
885.16	498.4
885.573	498.8
885.964	494.6
886.377	500
886.768	492.4
887.181	493
887.573	489.6
887.987	496.6
888.378	503.8
888.792	500.6
889.184	532.8
889.598	491.4
889.99	501.2
890.383	489.2
890.797	486.4
891.19	492.4
891.604	489.6
891.997	489.6
892.411	490.4
892.805	491
893.198	492.4
893.613	483.2
894.006	490
894.421	485.8
894.815	492.4
895.209	489.8
895.624	535.8
896.018	504.4
896.412	496.6
896.828	492.6
897.222	500
897.617	494.2
898.033	510.8
898.427	494.2
898.822	483.6
899.239	491.8
899.634	493
900.029	512.2
900.424	490.8
900.841	489.4
901.236	503.8
901.632	500.2
902.027	542.2
902.445	498.2
902.841	491.6
903.237	498.8
903.633	502
904.05	508.8
904.447	495.8
904.843	504.2
905.24	496
905.636	486.6
906.033	492.8
906.451	511.6
906.848	488.2
907.246	491.2
907.643	495.4
908.04	503
908.438	502.8
908.835	497
909.254	500.8
909.652	508.6
910.05	495.4
910.448	495.8
910.846	496
911.244	496.2
911.643	492.4
912.041	499.2
912.44	507.6
912.839	486.6
913.237	489.6
913.636	491.6
914.035	496
914.434	488
914.834	503.4
915.233	502.8
915.633	490.4
916.032	497.2
916.432	485
916.832	503
917.232	487.2
917.632	490
918.032	503.6
918.432	492.8
918.833	492.6
919.233	498
919.634	489.6
920.035	496.6
920.436	496.6
920.837	499.8
921.238	489
921.639	493.6
922.019	501
922.42	499.8
922.822	507.2
923.224	496.2
923.625	488
924.027	502.6
924.429	512.2
924.81	494.4
925.212	496.2
925.615	490.4
926.017	491.4
926.42	506.8
926.801	488.6
927.204	493
927.607	499.2
928.01	507.8
928.413	497.4
928.795	482
929.199	488.4
929.602	489.8
930.006	487
930.388	494.8
930.792	495.4
931.196	494.2
931.579	519.8
931.983	488.6
932.388	525.2
932.771	493.2
933.176	488.4
933.58	497.4
933.964	505
934.369	491.4
934.774	499.6
935.158	494.4
935.563	496.6
935.947	486.4
936.353	498
936.759	498.6
937.143	506.2
937.549	496.8
937.934	500.2
938.34	508.6
938.746	499.6
939.131	493.6
939.538	487.6
939.923	501.6
940.33	489.4
940.716	494
941.123	498
941.508	495.2
941.916	497.2
942.302	495.8
942.709	492
943.096	485.2
943.503	501.4
943.89	486.4
944.298	488.4
944.685	512
945.072	483.8
945.48	501.6
945.867	489.2
946.276	483.4
946.663	507.8
947.051	499.4
947.46	505.2
947.848	487.8
948.257	485
948.645	490.2
949.033	483.2
949.443	487
949.831	521.8
950.22	479.4
950.63	497.8
951.018	504.4
951.407	493.2
951.796	484.2
952.207	495.2
952.596	490.4
952.985	484.4
953.375	523.4
953.786	491.2
954.176	491.8
954.566	499.8
954.956	478
955.367	490.6
955.758	509.2
956.148	478.8
956.539	496
956.929	482.2
957.341	485.8
957.732	488.2
958.123	496
958.515	482
958.906	498.2
959.297	491.8
959.689	489.6
960.102	489
960.494	493
960.886	484.8
961.278	483.4
961.67	508.8
962.062	515
962.455	485.2
962.847	485.4
963.24	484.4
963.633	493.6
964.026	479.4
964.419	491.2
964.812	499.8
965.206	483.8
965.599	496.6
965.993	496.6
966.386	492.8
966.78	502.6
967.174	497.6
967.569	490.8
967.963	491.4
968.357	488.6
968.752	490.2
969.146	489.6
969.541	482.4
969.936	481
970.331	482.4
970.705	498.4
971.1	498
971.496	493.8
971.892	488.2
972.287	494
972.683	500.8
973.079	492.6
973.454	505.4
973.85	496
974.247	501.6
974.643	504.6
975.04	490.4
975.415	492
975.812	491.4
976.209	484.6
976.607	486
976.982	504.6
977.38	509.2
977.778	500
978.175	494
978.552	495.2
978.95	497.8
979.348	497
979.725	534.6
980.123	485.6
980.522	498.4
980.899	492.6
981.298	486.6
981.697	492
982.075	491.8
982.474	488.6
982.852	496.2
983.251	498
983.651	492
984.029	493.4
984.429	492.4
984.808	483.4
985.208	490.2
985.609	485
985.987	482.8
986.388	485.2
986.768	496.6
987.168	485
987.548	493.6
987.949	498.8
988.329	499.2
988.731	486.8
989.111	497.4
989.491	489.6
989.893	498.2
990.273	500.6
990.676	491.4
991.057	488.6
991.459	490.6
991.84	488
992.221	481.8
992.624	506
993.006	494.8
993.388	495.2
993.791	498
994.173	496
994.576	515.8
994.959	484.2
995.341	485.8
995.724	492.6
996.128	489.2
996.511	488.2
996.894	485.4
997.298	485.8
997.681	495.8
998.065	496.6
998.448	488.8
998.854	504.8
999.237	482.2
999.621	501.4
1000.01	496.2
1000.39	496.6
1000.8	492
1001.18	496
1001.56	497.4
1001.95	501.2
1002.33	500.2
1002.72	491.2
1003.13	488.2
1003.51	484.4
1003.9	493.8
1004.28	500.6
1004.67	491.8
1005.06	548.4
1005.44	715
1005.83	495.2
1006.21	550.2
1006.6	507.6
1006.99	497.8
1007.37	498
1007.76	496.8
1060.12	491.6
1060.51	490
1060.89	499.8
1061.28	498.2
1061.67	498
1062.06	495.2
1062.45	493.8
1062.83	490
1063.22	501.2
1063.61	524.8
1064	489.4
1064.39	491.8
1064.78	481.4
1065.14	504.6
1065.53	503
1065.92	493.2
1066.31	492.4
1066.7	504.2
1067.09	499.2
1067.46	496.6
1067.85	486.4
1068.24	490.4
1068.63	494
1069.02	491
1069.39	499.6
1069.78	487.6
1070.17	491.8
1070.57	480.2
1070.93	494
1071.33	482.6
1071.72	490
1072.11	486.8
1072.48	494.6
1072.87	492
1073.26	497.4
1073.64	484.6
1074.03	486
1074.4	487.8
1074.79	488.2
1075.19	495.4
1075.56	481.4
1075.95	493.8
1076.34	481.6
1076.72	484.6
1077.11	495
1077.48	495
1077.88	490
1078.25	486.2
1078.64	501.6
1079.02	497.4
1079.41	498.4
1079.78	480.6
1080.18	482.4
1080.55	538.6
1080.95	483
1081.32	484
1081.72	492.4
1082.09	490.4
1082.49	480
1082.86	488.2
1083.24	484
1083.63	484.4
1084.01	489.4
1084.38	495.4
1084.78	485.8
1085.16	494.2
1085.55	503.8
1085.93	494.4
1086.31	483.2
1086.7	514.8
1087.08	492.8
1087.46	484.2
1087.83	477
1088.23	494.8
1088.61	482.6
1088.99	490.2
1089.36	476.6
1089.76	486.2
1090.14	482
1090.52	485.4
1090.9	480.8
1091.27	501.8
1091.67	511.2
1092.05	486.2
1092.43	481.2
1092.81	494.2
1093.19	493.2
1093.57	480.2
1093.95	484.2
1094.35	495.6
1094.73	490.2
1095.11	488.4
1095.49	484.8
1095.87	492.8
1096.25	491.6
1096.63	491.4
1097.01	492.6
1097.39	491.8
1097.77	489.8
1098.15	489.8
1098.53	482.6
1098.91	487.8
1099.29	490.2
1099.68	501.6
1100.06	495
1100.44	488.6
1100.82	492.8
1101.18	493.2
1101.56	487.2
1101.95	482.4
1102.33	488.4
1102.71	489
1103.1	488
1103.48	473.6
1103.86	481.6
1104.22	488.8
1104.61	485
1104.99	489.6
1105.38	471.2
1105.76	491.8
1106.12	479.8
1106.51	514.6
1106.89	492.4
1107.26	491
1107.64	491.8
1108.03	486.4
1108.41	484.4
1108.78	487.6
1109.16	488.8
1109.55	500.6
1109.91	477
1110.3	474.4
1110.69	505.8
1111.05	481.8
1111.44	486
1111.8	493.6
1112.19	483.4
1112.58	489.2
1112.94	487.8
1113.33	487
1113.7	486.4
1114.09	476.8
1114.45	478.2
1114.84	490.6
1115.21	485.6
1115.6	479.2
1115.96	496.2
1116.35	495.6
1116.72	487.4
1117.11	495.4
1117.48	486
1117.85	485
1118.24	505.2
1118.6	492
1118.99	485
1119.36	488.8
1119.73	488.4
1120.12	489
1120.49	478.6
1120.86	495
1121.25	487.2
1121.62	481.4
1121.99	489.8
1122.38	492
1122.76	495.8
1123.13	485.4
1123.5	489
1123.89	488
1124.26	476.4
1124.63	486.6
1125	485
1125.4	484
1125.77	484.2
1126.14	476.2
1126.51	486
1126.88	491.2
1127.26	484.2
1127.63	483.6
1128.02	482.4
1128.4	488.8
1128.77	484.2
1129.14	491
1129.52	487
1129.89	484.6
1130.26	482.4
1130.64	481.4
1131.01	484.6
