#lambda/nm	C1
208.295	470
208.67	435.6
209.045	395.4
209.419	401.6
209.794	538
210.169	523
210.544	629.6
210.919	537.8
211.295	530.2
211.67	537.2
212.045	532.4
212.421	540.8
212.796	567
213.172	528
213.547	535.2
213.923	536
214.299	535
214.675	534.6
215.051	536.6
215.427	542
215.803	557.8
216.179	541.2
216.555	530.2
216.932	539.4
217.308	536.8
217.684	540.2
218.061	534
218.438	542.2
218.814	527
219.191	548.2
219.568	523
219.945	530.4
220.322	546.2
220.699	541.2
221.076	546.2
221.453	537.4
221.83	533.6
222.208	527
222.585	530.8
222.962	533.6
223.34	537.4
223.717	544.4
224.095	532.2
224.473	531.4
224.851	534
225.229	522.2
225.607	548.4
225.985	533.2
226.363	537.2
226.741	527.4
227.119	529.2
227.497	546.2
227.876	534
228.254	533.4
228.633	536.2
229.011	535
229.39	540.4
229.769	539
230.148	537.8
230.527	542.8
230.905	536.6
231.284	538
231.664	534.2
232.043	548
232.422	536.8
232.801	530.2
233.181	538.8
233.56	529.6
233.94	535.4
234.319	528.2
234.699	528.2
235.079	573.2
235.458	572.4
235.838	549
236.218	530
236.598	536.8
236.978	536
237.358	524.4
237.738	533
238.119	546
238.499	528
238.88	534.4
239.26	551.4
239.641	529.2
240.021	529.6
240.402	540
240.783	535.2
241.163	534
241.544	530
241.925	534.4
242.306	545.4
242.687	526.6
243.069	537.8
243.45	539
243.831	535
244.212	533.8
244.594	566
244.975	541.8
245.357	536.4
245.739	539.4
246.12	535.8
246.502	545.4
246.884	528.8
247.266	530.8
247.648	538.4
248.03	551.8
248.412	536.2
248.794	541.8
249.176	536
249.559	538.6
249.941	528
250.323	522.4
250.706	525.8
251.089	539.2
251.471	540.4
251.854	540.4
252.237	532.2
252.62	542.4
253.002	536.2
253.385	532.6
253.769	542
254.152	536.6
254.535	537.8
254.918	524.6
255.301	537
255.685	535
256.068	528.6
256.452	556.6
256.835	543
257.219	543.8
257.603	548.6
257.986	525.6
258.37	530.4
258.754	523.6
259.138	537.4
259.522	546.8
259.906	527
260.29	534.6
260.675	527.8
261.059	531.6
261.443	525.4
261.828	536.4
262.212	540.4
262.597	524.2
262.981	527.8
263.366	532.8
263.751	533.6
264.136	518.2
264.521	534.2
264.906	527.4
265.291	531.8
265.676	530.6
266.061	541.2
266.446	547.4
266.831	537.8
267.217	551
267.602	542.8
267.987	538
268.373	538.4
268.759	544.6
269.144	534.8
269.53	537
269.916	527.6
270.302	539
270.688	540.2
271.074	534.2
271.46	551
271.846	562.8
272.232	533
272.618	537.4
273.004	529.6
273.391	544.2
273.777	540
274.164	534
274.55	542.8
274.937	531.6
275.324	534.8
275.71	534.6
276.097	544.4
276.484	526
276.871	538.4
277.258	538
277.645	517.6
278.032	536.4
278.419	533.4
278.807	534.6
279.194	527.8
279.581	529.2
279.969	548.2
280.356	532
280.744	535.8
281.131	550.4
281.519	538.8
281.907	534.8
282.295	534.8
282.682	546
283.07	538.6
283.458	546.6
283.846	546.6
284.235	537.4
284.623	544.6
285.011	524.4
285.399	543.4
285.788	536.8
286.176	523.8
286.565	549.6
286.953	534
287.342	535.2
287.731	530
288.119	532.4
288.508	534.6
288.897	537.6
289.286	524.8
289.675	538.8
290.064	542.4
290.453	536.4
290.821	533.2
291.21	545.6
291.599	532.2
291.989	540.4
292.378	542
292.768	549.8
293.157	541
293.547	539.6
293.936	536.2
294.326	533.2
294.716	534.6
295.106	525.8
295.496	539.6
295.886	547.4
296.276	529.6
296.666	529.2
297.056	534.2
297.446	524.4
297.836	545.6
298.227	534.8
298.617	531
299.008	547.2
299.398	537.4
299.789	540.6
300.179	545.4
300.57	545.6
300.961	534.8
301.352	529
301.742	542.8
302.133	541.8
302.524	536
302.915	545.8
303.307	530.8
303.698	547.4
304.089	540.8
304.48	535
304.872	548.2
305.263	533.6
305.655	531.6
306.046	532.6
306.438	531.6
306.829	530
307.221	544.4
307.613	540.2
308.005	539.6
308.397	546.4
308.789	555.2
309.181	560
309.573	548.4
309.965	548.4
310.357	533.6
310.749	545.6
311.142	534.8
311.534	526
311.926	535.6
312.319	539
312.711	527.8
313.104	541.8
313.497	532.6
313.889	576.2
314.282	552.2
314.675	557.4
315.068	537.4
315.461	534.4
315.854	562.6
316.247	542.4
316.64	531.4
317.033	537.4
317.405	539.6
317.798	535.4
318.192	536
318.585	524.2
318.979	544.4
319.372	532.4
319.766	528.4
320.16	539.2
320.553	543.2
320.947	557
321.341	528.6
321.735	527.2
322.129	529.6
322.523	556.2
322.917	527.6
323.311	543.2
323.705	540.6
324.099	531.4
324.494	553.4
324.888	543.8
325.282	525
325.677	542.6
326.071	531.8
326.466	541.8
326.861	531.6
327.255	547.2
327.65	550.4
328.045	546.6
328.44	540
328.835	540.4
329.23	531.6
329.625	552.8
330.02	524
330.415	555.2
330.81	543.8
331.206	538.2
331.601	534
331.996	550.8
332.37	553.2
332.766	525.2
333.161	556.8
333.557	533.2
333.953	534
334.348	876
334.744	535
335.14	528.4
335.536	526.6
335.932	541.6
336.328	540.4
336.724	548.4
337.12	536.2
337.516	541.2
337.913	539.4
338.309	544.6
338.705	539.2
339.102	539.8
339.498	535.8
339.895	541.8
340.291	530.4
340.688	541.2
341.085	526.4
341.481	539
341.878	529.8
342.275	551
342.672	532.2
343.069	524
343.466	524
343.842	544.4
344.239	534.8
344.636	530.8
345.033	526.2
345.431	533.4
345.828	533
346.225	533.2
346.623	564.2
347.02	538.4
347.418	534.2
347.816	547.4
348.213	517.2
348.611	537
349.009	530.2
349.407	546.8
349.805	528.2
350.203	521.2
350.601	551
350.999	519.8
351.397	557
351.795	534.4
352.193	540.2
352.57	544
352.969	538
353.367	522.2
353.766	513.6
354.164	527.6
354.563	541.6
354.961	525.6
355.36	526.2
355.759	520.4
356.158	523.2
356.557	525.2
356.956	524.8
357.355	521.6
357.754	531.2
358.153	533
358.552	542.6
358.951	534.4
359.35	539.4
359.75	525.6
360.149	519
360.527	512.4
360.926	520
361.326	529
361.726	523.4
362.125	518.8
362.525	533.4
362.925	513.8
363.325	525.8
363.724	531.6
364.124	522.4
364.524	523.8
364.924	524.4
365.324	534.2
365.725	511.8
366.125	532.4
366.525	526.2
366.904	519.2
367.304	516.2
367.705	545.2
368.105	537.4
368.506	532.2
368.906	524.4
369.307	523.4
369.708	533.6
370.108	515.8
370.509	527.2
370.91	520.2
371.311	527.4
371.712	521.2
372.113	531.2
372.514	517.2
372.894	524.8
373.295	520
373.696	533.2
374.097	531.4
374.499	546.2
374.9	525
375.301	516.4
375.703	524.6
376.105	528
376.506	525.2
376.908	530.4
377.309	523.2
377.711	524
378.113	528.6
378.493	531.4
378.895	525.6
379.297	535.8
379.699	519
380.102	531.2
380.504	528.6
380.906	525.8
381.308	547.6
381.71	526.8
382.113	526.4
382.515	527.6
382.918	523.8
383.299	523
383.701	533.6
384.104	528.4
384.507	516.2
384.909	529.4
385.312	520.8
385.715	526.6
386.118	522
386.521	516.8
386.924	531.6
387.327	522.8
387.709	521.6
388.112	517
388.515	529.4
388.918	525.2
389.322	528.6
389.725	522.6
390.129	540.6
390.532	531
390.936	530.6
391.339	523.4
391.743	533
392.125	524.6
392.529	533.4
392.933	538.8
393.337	519.2
393.74	525
394.144	524.4
394.548	522.8
394.953	531.4
395.357	530.2
395.761	523.4
396.144	522.6
396.548	532.6
396.952	525.4
397.357	527.8
397.761	524.4
398.166	519.6
398.57	523.4
398.975	522.4
399.379	529.6
399.763	563.6
400.168	532.4
400.572	529.4
400.977	526.2
401.382	542.6
401.787	554
402.192	537.2
402.597	532.2
403.002	517.2
403.386	527.4
403.791	542.4
404.197	523.4
404.602	531.8
405.007	529.8
405.413	526.8
405.818	527.2
406.224	519.2
406.608	516.4
407.014	522.4
407.42	536.6
407.825	522.2
408.231	538.2
408.637	527.4
409.043	539.4
409.449	524.2
409.834	525
410.24	518
410.646	537
411.052	530.8
411.458	527.2
411.865	524.6
412.271	535.2
412.677	518.4
413.062	536.6
413.469	519
413.875	546.4
414.282	539.6
414.689	530.6
415.095	532.2
415.502	516.2
415.888	528.4
416.294	515.8
416.701	559.8
417.108	523.6
417.515	533.8
417.923	523
418.33	540.4
418.715	534
419.123	524.2
419.53	530
419.937	526.4
420.345	542.2
420.752	526.8
421.16	540
421.546	525.6
421.953	531
422.361	523.4
422.769	531
423.177	518.6
423.585	552.4
423.992	545
424.379	549
424.787	538
425.195	543.6
425.603	525.6
426.011	540.4
426.419	543.6
426.806	532
427.214	538.6
427.623	534.8
428.031	549.2
428.44	538.2
428.848	554
429.235	559.6
429.644	549
430.053	554.8
430.461	580.2
430.87	588.8
431.279	582.6
431.666	591
432.075	601.4
432.484	612
432.893	613.4
433.302	635.8
433.711	676
434.099	669
434.508	674.6
434.918	692.2
435.327	706.8
435.737	723.8
436.125	741.8
436.534	766.4
436.944	779.4
437.353	801
437.763	830.6
438.173	824.2
438.561	849.6
438.971	852.6
439.381	865.4
439.791	888.6
440.201	895.4
440.589	930
440.999	944.2
441.409	956.6
441.819	969.2
442.23	981
442.619	1005.8
443.029	996
443.439	1024.6
443.85	1044.4
444.26	1052.8
444.649	1032.6
445.06	1040.8
445.471	1041.4
445.881	1055.2
446.292	1088.6
446.682	1099.6
447.092	1069.2
447.503	1142.4
447.914	1091.4
448.325	1096
448.715	1118.4
449.126	1115.2
449.537	1116.4
449.948	1131.2
450.338	1120.8
450.75	1126.2
451.161	1126.8
451.572	1140
451.984	1140.4
452.374	1123.2
452.786	1153.6
453.197	1148
453.609	1154.2
453.999	1134.6
454.411	1159.8
454.823	1160
455.235	1156.8
455.647	1155.6
456.037	1163.8
456.449	1142.8
456.862	1156.6
457.274	1172
457.665	1148.4
458.077	1170
458.489	1190.2
458.902	1161
459.293	1178.4
459.705	1172.2
460.118	1166.4
460.53	1165.2
460.921	1177.4
461.334	1176.2
461.747	1177.6
462.16	1184.4
462.551	1197.8
462.964	1177
463.377	1159.2
463.79	1174.8
464.182	1184
464.595	1181.2
465.008	1172.6
465.421	1164.6
465.813	1153.6
466.226	1175.2
466.64	1171.6
467.053	1197.2
467.445	1163.4
467.859	1181.4
468.272	1169
468.686	1188
469.078	1177
469.492	1155.8
469.906	1177.2
470.298	1188.4
470.712	1160.6
471.126	1196.4
471.54	1156.2
471.933	1138.4
472.347	1164.8
472.761	1150
473.175	1156.2
473.568	1156
473.982	1144
474.397	1155.4
474.79	1149.8
475.204	1157.8
475.619	1141.4
476.033	1148.4
476.426	1145.4
476.841	1132.6
477.256	1138.6
477.649	1129.4
478.064	1113.6
478.479	1113.8
478.872	1114.4
479.287	1116.6
479.702	1107.8
480.118	1113.8
480.511	1109.2
480.927	1115.8
481.342	1098
481.736	1108.4
482.151	1102.4
482.566	1098.8
482.96	1091.8
483.376	1097
483.792	1075.8
484.186	1090.4
484.602	1078.2
485.017	1069.6
485.412	1072.2
485.827	1069.6
486.243	1070.6
486.638	1083.8
487.054	1067.6
487.47	1065.6
487.865	1051.8
488.281	1047.2
488.697	1029.2
489.092	1032
489.508	1032.4
489.925	1034.2
490.32	1027.4
490.736	1038.2
491.153	1028.6
491.548	1009
491.964	1026.2
492.381	1001.8
492.776	1005.8
493.193	997.2
493.61	1007
494.006	984.2
494.422	993.6
494.84	977.8
495.235	993.4
495.652	994
496.069	964.4
496.465	961.2
496.883	959
497.3	984.6
497.696	945.8
498.113	953.4
498.509	950
498.927	936.8
499.344	938
499.741	925
500.158	944.6
500.576	942.6
500.973	927.8
501.39	917.4
501.787	915.8
502.205	919.6
502.623	891.6
503.02	896.2
503.438	893.8
503.856	896.4
504.253	894.8
504.671	888.2
505.068	887.6
505.486	882.4
505.905	891.6
506.302	879.2
506.72	877.4
507.118	853.4
507.536	859.4
507.955	854.6
508.352	856.8
508.771	855.6
509.169	855.6
509.587	844
510.006	847.4
510.404	830.6
510.823	836
511.221	820.8
511.64	824.4
512.038	841.4
512.457	829.4
512.877	827
513.275	821.6
513.694	813.2
514.092	803.8
514.512	806.4
514.91	818.2
515.33	806.2
515.749	793.8
516.148	796.8
516.568	797.6
516.966	794.6
517.386	781.6
517.785	782.8
518.205	781.2
518.603	781.2
519.024	772.8
519.444	771.6
519.843	771.8
520.263	765.2
520.662	759.4
521.082	753.6
521.481	762.2
521.902	758.6
522.301	759
522.722	762.8
523.121	751.6
523.542	754.6
523.963	744.2
524.362	732.2
524.783	727.8
525.183	732.2
525.604	725.6
526.003	732.2
526.425	726.8
526.824	726.8
527.246	727
527.646	718.6
528.067	727.6
528.467	720.4
528.888	715.2
529.289	707.6
529.71	710.8
530.11	709.6
530.532	701.8
530.932	693.4
531.354	693
531.755	723.2
532.176	702.2
532.577	692.2
532.999	702.2
533.4	689.6
533.822	693.4
534.223	687.6
534.645	682.6
535.046	687.4
535.468	678
535.869	690.8
536.292	674.6
536.693	699.2
537.115	674.6
537.516	666.4
537.939	665.2
538.34	691.8
538.742	679.2
539.165	662.4
539.566	669.6
539.989	652.8
540.391	656
540.814	663.6
541.216	668
541.639	657.2
542.041	658.6
542.464	659
542.866	655
543.268	644
543.691	651.4
544.093	653.8
544.517	662.6
544.919	635.8
545.343	663.4
545.745	632.8
546.147	645.6
546.571	638.6
546.974	626
547.398	642.6
547.8	650.2
548.224	631.4
548.627	617.4
549.03	630.8
549.454	618
549.857	611.6
550.281	611.8
550.684	614.6
551.087	626.6
551.512	620.6
551.915	617.8
552.34	620.8
552.743	613.4
553.146	618.6
553.571	613.8
553.975	630
554.399	598.4
554.803	654
555.207	602.4
555.632	602
556.036	610
556.461	599.6
556.865	613.6
557.268	602.4
557.694	602.6
558.098	611.6
558.502	596.2
558.927	592.2
559.332	593.8
559.736	591
560.162	591.6
560.566	591.2
560.992	588.4
561.396	592.4
561.801	585
562.227	591
562.631	583
563.036	587
563.462	593.2
563.867	584.8
564.272	571.4
564.698	592
565.103	575.6
565.508	592.8
565.935	579.8
566.34	578.6
566.745	587.4
567.172	580.8
567.577	586.2
567.982	594.6
568.409	579.8
568.815	568
569.22	573.2
569.626	579.4
570.053	568.8
570.459	573.2
570.865	570.2
571.292	580.4
571.698	576.4
572.104	565.4
572.531	565.2
572.937	572.2
573.343	571.4
573.75	568.8
574.177	560.4
574.583	565.8
574.99	559.8
575.396	578.2
575.824	567
576.231	569.8
576.637	565.6
577.065	579.6
577.472	559.2
577.879	565.2
578.286	574.4
578.714	558.6
579.121	554.8
579.528	565
579.935	568.6
580.364	548.4
580.771	547.2
581.178	546
581.585	562.8
582.014	565.4
582.421	551.2
582.829	553.6
583.236	556
583.644	549.2
584.073	549.2
584.481	555.6
584.889	551.8
585.296	555.8
585.726	557.6
586.134	541.6
586.542	545.8
586.95	567
587.358	536.8
587.787	551.4
588.196	538.2
588.604	543.4
589.012	550.6
589.421	540.8
589.851	542.6
590.259	548.4
590.668	537
591.076	571
591.485	547.8
591.894	541.4
592.324	551.6
592.733	552.4
593.142	526.2
593.551	532.8
593.96	544.4
594.369	539.8
594.8	540
595.209	540.8
595.618	528.2
596.028	533.6
596.437	527.4
596.847	543.2
597.256	536
597.687	540.4
598.097	536
598.507	532.6
598.917	537.4
599.327	551
599.736	532.6
600.146	544
600.556	538.6
600.988	541
601.398	534.8
601.808	539.8
602.219	520.4
602.629	538
603.039	525.8
603.45	555
603.86	536.6
604.271	549.6
604.703	537.6
605.114	536.2
605.525	541
605.935	536.6
606.346	548.2
606.757	537
607.168	534
607.579	523.8
607.99	541.6
608.402	536.8
608.813	542.2
609.224	523.4
609.636	519.8
610.047	526.6
610.48	524.8
610.892	532.4
611.303	540.8
611.715	533.6
612.127	529.6
612.539	534.6
612.95	540.4
613.362	529.8
613.774	531.2
614.186	525.6
614.599	533.6
615.011	539
615.423	535.6
615.835	527.2
616.248	533.4
616.66	540.2
617.073	525.4
617.485	537.6
617.898	537.2
618.311	539.8
618.723	529.4
619.136	551.4
619.549	554.4
619.962	555.8
620.375	528.6
620.788	542.4
621.201	540.8
621.614	544.2
622.028	537.8
622.441	534
622.854	550.2
623.268	531.8
623.681	546.6
624.095	550.4
624.509	548.6
624.922	544
625.336	529.6
625.728	537.8
626.142	539.6
626.556	547.8
626.97	541.8
627.384	532.6
627.799	539.2
628.213	546.2
628.627	543
629.041	535.8
629.456	528
629.87	534
630.285	536.4
630.699	538.4
631.093	536.6
631.507	540.2
631.922	537.6
632.337	536
632.752	523.4
633.167	534.2
633.582	536
633.997	529.8
634.412	525
634.806	539.8
635.221	527
635.637	540.4
636.052	522
636.468	532.2
636.883	551.6
637.299	528.8
637.715	520.8
638.109	538.6
638.525	527.4
638.941	535.2
639.357	532
639.773	538.8
640.189	522
640.584	524.8
641	527.2
641.416	516.6
641.832	524.4
642.249	530.6
642.665	522
643.06	531.6
643.477	533.6
643.894	505.8
644.31	523
644.727	519.2
645.123	521.6
645.54	523.6
645.957	530.8
646.374	528.4
646.77	514.4
647.187	540.2
647.604	515.2
648.021	501.2
648.439	519.4
648.835	523.2
649.252	516.6
649.67	514.2
650.088	515.2
650.484	520.8
650.902	516.6
651.32	522
651.738	507.6
652.134	523
652.552	531.2
652.971	517
653.389	516.6
653.786	529.4
654.204	517.2
654.622	510.8
655.019	519.6
655.438	522.2
655.857	515.4
656.275	522.8
656.673	506.8
657.091	521.6
657.51	516
657.908	531.4
658.327	523.2
658.746	500
659.144	518
659.563	531.6
659.982	518
660.38	508.6
660.8	508.2
661.219	523
661.617	513.2
662.037	513.6
662.457	525
662.855	499.8
663.275	532.6
663.695	512.8
664.094	510
664.514	510.2
664.934	502.8
665.333	514.4
665.753	508
666.152	506.2
666.572	503.2
666.993	519.2
667.392	514.8
667.812	512.8
668.212	515.6
668.632	519.8
669.053	503.4
669.453	515.8
669.874	511.8
670.273	515.6
670.694	510.8
671.116	521.6
671.515	524.4
671.937	512.8
672.337	506.6
672.758	509.4
673.158	527.4
673.58	506.2
673.98	509.8
674.402	516.6
674.824	509
675.224	510.4
675.646	498.8
676.047	504.8
676.469	511
676.869	514.4
677.292	516.4
677.693	504.8
678.115	503.4
678.516	514.4
678.939	517.8
679.34	504.4
679.762	508.6
680.164	516.2
680.586	503.2
680.988	507.2
681.411	518.6
681.812	515.8
682.236	508.4
682.637	501.8
683.061	502.8
683.462	518.4
683.864	510.2
684.288	517.8
684.69	501.2
685.114	511.8
685.516	514
685.94	503.2
686.342	517.2
686.766	503.2
687.168	504.4
687.571	522.6
687.995	515.6
688.398	497.6
688.822	508.2
689.225	523.4
689.628	520.4
690.052	503.6
690.456	517.6
690.88	509.2
691.284	496.6
691.687	507.6
692.112	501.4
692.515	493.2
692.919	509.8
693.344	503.8
693.747	508.8
694.173	497
694.577	521.4
694.98	510
695.406	503.2
695.81	510
696.214	504
696.64	507.6
697.044	507.6
697.448	517
697.874	507.2
698.279	507.6
698.684	490.4
699.11	500.4
699.514	504.8
699.919	503.2
700.324	505
700.75	505.4
701.156	507.8
701.561	511.4
701.987	504.6
702.393	509
702.798	512.6
703.203	499
703.63	496
704.036	501.8
704.442	502.6
704.847	491
705.274	511.8
705.68	508
706.086	507.2
706.492	496.6
706.92	503.2
707.326	503.4
707.732	492
708.139	500.4
708.545	503.6
708.973	502.4
709.38	509
709.786	501
710.193	512
710.6	503.6
711.028	496.6
711.435	509.6
711.842	508.6
712.249	496.8
712.656	501.2
713.064	512.4
713.492	497.4
713.9	504
714.307	503
714.715	501.8
715.123	507.8
715.53	502
715.938	514.8
716.367	504.6
716.775	501.6
717.184	505.4
717.592	501
718	519.8
718.408	544.6
718.816	538.8
719.225	509.8
719.633	503.8
720.042	502.4
720.472	511.2
720.881	517.6
721.29	504.4
721.699	493.6
722.108	502.8
722.517	502.2
722.926	502.6
723.335	509.8
723.744	514.2
724.154	512
724.563	504.6
724.973	505.2
725.382	508
725.792	509.2
726.202	495.2
726.612	513.2
727.022	501.4
727.432	497.6
779.813	509
780.223	533.4
780.634	504.8
781.044	497.8
781.454	501
781.865	510.4
782.276	498
782.686	512.8
783.097	497.8
783.508	501.8
783.919	509.4
784.33	520.6
784.741	508.4
785.152	492.8
785.563	487.6
785.974	501
786.386	503.8
786.776	509.6
787.188	506.8
787.599	491.6
788.011	508.4
788.423	504.2
788.835	498
789.247	489.4
789.659	495.8
790.071	496.4
790.483	530.8
790.874	496.8
791.286	501.4
791.699	494.6
792.111	494.2
792.524	502.4
792.937	501
793.349	495.4
793.741	497.8
794.154	498
794.567	515.2
794.98	495.4
795.393	486.8
795.785	508
796.198	500
796.612	496.4
797.026	491.4
797.439	481.6
797.831	493
798.245	487.2
798.659	499
799.073	496.6
799.487	495.6
799.88	500
800.294	505
800.708	503.4
801.123	493.6
801.516	522.6
801.93	488.8
802.345	491.8
802.76	497.2
803.153	508.6
803.568	510.6
803.983	502.6
804.377	502.6
804.792	492.6
805.207	491.6
805.601	498.6
806.016	524.6
806.432	491
806.826	513.4
807.242	502.2
807.658	487.6
808.052	489.2
808.468	491.6
808.884	491.2
809.279	490.4
809.695	506.4
810.111	516
810.506	500.4
810.922	513.6
811.339	497
811.734	498.4
812.151	499.8
812.546	491
812.963	487.6
813.38	501.2
813.776	496.2
814.193	520
814.589	500.4
815.006	498
815.402	487.8
815.82	492.4
816.237	493.6
816.633	492.6
817.051	492.4
817.448	497.6
817.866	497.2
818.262	514.4
818.68	504
819.077	497.4
819.495	497.6
819.892	540.2
820.311	494
820.708	498.6
821.127	495.4
821.524	507
821.943	504.2
822.34	509.6
822.759	505
823.157	497.8
823.576	511.2
823.974	510.8
824.393	589.4
824.791	501.6
825.189	492
825.609	503.4
826.007	498.6
826.427	485.6
826.826	501.8
827.246	505
827.644	491.8
828.043	510
828.463	495.8
828.862	510.8
829.261	505.4
829.682	495.2
830.081	503.4
830.502	495.4
830.901	502
831.301	496.4
831.722	493.8
832.121	494.6
832.521	499.2
832.943	503.4
833.342	495.8
833.742	485.2
834.164	499.4
834.564	490
834.965	501.8
835.386	493.8
835.787	499
836.188	503.8
836.588	501.2
837.01	497.6
837.411	497
837.812	498.2
838.213	499
838.636	497.4
839.037	551.2
839.438	500.8
839.84	492
840.263	503.4
840.664	510.2
841.066	491.4
841.468	497.8
841.891	499.8
842.293	505.6
842.695	501.2
843.098	511.6
843.5	499.4
843.902	503.4
844.326	503
844.729	501.4
845.131	505.2
845.534	504
845.937	511
846.34	512.2
846.764	494.2
847.167	496.2
847.571	490.8
847.974	496
848.377	490.6
848.781	536.2
849.184	505
849.588	495.8
849.992	499
850.396	498.6
850.821	510.6
851.225	497.2
851.63	497
852.034	503.8
852.438	500.8
852.843	520.8
853.247	491.2
853.652	488.6
854.057	515.2
854.462	490
854.867	497.4
855.272	513.2
855.677	499.8
856.082	493.4
856.487	488.4
856.893	502.8
857.298	501
857.704	494.4
858.11	502.2
858.516	500.8
858.922	495.6
859.328	496.2
859.734	502.2
860.14	505.4
860.525	496.4
860.931	486.2
861.338	491.6
861.745	495.8
862.151	505.8
862.558	502.8
862.965	490.4
863.372	492.6
863.779	499.8
864.186	515.6
864.572	495.6
864.98	509.8
865.387	525
865.795	491.2
866.203	507.4
866.61	493
867.018	516
867.405	504.8
867.813	491.4
868.221	495
868.63	492.6
869.038	506.6
869.425	521
869.834	503.8
870.243	495.6
870.652	492
871.039	496.8
871.448	497.2
871.857	499.4
872.266	507.4
872.654	497.2
873.064	499.4
873.473	508.2
873.883	506.6
874.271	492.4
874.681	497.8
875.091	500.6
875.48	507.4
875.89	516.4
876.3	495.4
876.689	489.4
877.1	500.6
877.51	500
877.9	516.8
878.31	499.2
878.721	520.4
879.111	501.6
879.522	498.4
879.933	483.4
880.323	490.6
880.734	490
881.125	495.6
881.536	492.6
881.948	498.2
882.338	497.4
882.75	501.2
883.141	488.4
883.553	504.2
883.944	517.8
884.356	505
884.769	492.2
885.16	490.6
885.573	498.8
885.964	483.4
886.377	492.6
886.768	479.2
887.181	483.2
887.573	488.8
887.987	503.8
888.378	505
888.792	500.8
889.184	532.6
889.598	483.4
889.99	493.4
890.383	495.4
890.797	491.6
891.19	505.2
891.604	493
891.997	483
892.411	488
892.805	487
893.198	490.8
893.613	478
894.006	495.2
894.421	482.8
894.815	484.4
895.209	495
895.624	520.6
896.018	512.4
896.412	492.8
896.828	492.8
897.222	499.4
897.617	497.2
898.033	510.6
898.427	490.4
898.822	490.6
899.239	480.2
899.634	481.4
900.029	506.4
900.424	493
900.841	485.4
901.236	501.8
901.632	496.4
902.027	543.4
902.445	507.8
902.841	496.2
903.237	490.8
903.633	513.4
904.05	501.2
904.447	497.8
904.843	499.6
905.24	492.2
905.636	485.4
906.033	491.8
906.451	502.2
906.848	477.8
907.246	493.4
907.643	495.4
908.04	501.2
908.438	499.2
908.835	496.8
909.254	496.2
909.652	504.2
910.05	502.6
910.448	487.6
910.846	488.8
911.244	488
911.643	498.4
912.041	491.4
912.44	504.8
912.839	489.2
913.237	491.6
913.636	489.2
914.035	499
914.434	502.6
914.834	504.8
915.233	505
915.633	493.2
916.032	493.4
916.432	486.8
916.832	507.6
917.232	485.4
917.632	485.8
918.032	500.6
918.432	489.4
918.833	493.6
919.233	485.2
919.634	497.6
920.035	496
920.436	488.8
920.837	503.8
921.238	491.8
921.639	483.2
922.019	490.4
922.42	494.6
922.822	500
923.224	497.6
923.625	489.4
924.027	493
924.429	503.2
924.81	498.4
925.212	504
925.615	492
926.017	496.8
926.42	503.4
926.801	500.2
927.204	494.8
927.607	502.6
928.01	505
928.413	494.6
928.795	485.2
929.199	485.4
929.602	499.2
930.006	493
930.388	493.8
930.792	495.2
931.196	492.4
931.579	523.2
931.983	490.4
932.388	517.6
932.771	493.8
933.176	495.2
933.58	492.4
933.964	505.4
934.369	491.6
934.774	500.2
935.158	496.2
935.563	492.6
935.947	493
936.353	495.4
936.759	496.8
937.143	497.8
937.549	496
937.934	508.4
938.34	509.2
938.746	490.6
939.131	498
939.538	488
939.923	495.2
940.33	490.8
940.716	496.4
941.123	495.4
941.508	494.4
941.916	504.2
942.302	499.4
942.709	485.6
943.096	492.2
943.503	498.6
943.89	492.2
944.298	496.2
944.685	516.6
945.072	486.6
945.48	497.8
945.867	492.2
946.276	488.8
946.663	508.6
947.051	498.4
947.46	509.2
947.848	491
948.257	490.2
948.645	496.6
949.033	494
949.443	492.2
949.831	527.2
950.22	485.6
950.63	499.8
951.018	508.4
951.407	493.6
951.796	481.8
952.207	500.4
952.596	503.2
952.985	488.4
953.375	524
953.786	489.4
954.176	485.8
954.566	498.6
954.956	489.8
955.367	489.2
955.758	507.2
956.148	480.6
956.539	497.8
956.929	491.2
957.341	488.4
957.732	488.8
958.123	499.2
958.515	484
958.906	499.6
959.297	488.6
959.689	495.6
960.102	478.8
960.494	486.6
960.886	492
961.278	486
961.67	508.2
962.062	531.2
962.455	494
962.847	483.8
963.24	478.6
963.633	489
964.026	484
964.419	492.2
964.812	498.4
965.206	485.8
965.599	499.8
965.993	491
966.386	497.6
966.78	510.6
967.174	502.4
967.569	484.8
967.963	486.4
968.357	483.4
968.752	488.2
969.146	492.4
969.541	490.8
969.936	495.8
970.331	496.6
970.705	491.4
971.1	493.6
971.496	496.2
971.892	487.4
972.287	491.2
972.683	483.4
973.079	492.8
973.454	502.4
973.85	493.6
974.247	499.8
974.643	522.2
975.04	493
975.415	497.6
975.812	484
976.209	495.4
976.607	482.4
976.982	495
977.38	510.6
977.778	485
978.175	482.4
978.552	493.6
978.95	491.8
979.348	489
979.725	528.2
980.123	487.6
980.522	482.6
980.899	482
981.298	485.6
981.697	488.2
982.075	488.8
982.474	489
982.852	492.8
983.251	492
983.651	488.4
984.029	485.4
984.429	489
984.808	478
985.208	488.4
985.609	477.8
985.987	475.8
986.388	484.2
986.768	492
987.168	486.2
987.548	496
987.949	495.2
988.329	491.2
988.731	483.2
989.111	489.8
989.491	485.8
989.893	491.6
990.273	488.8
990.676	477.6
991.057	482.6
991.459	483
991.84	489.6
992.221	480.2
992.624	504
993.006	492.8
993.388	499.4
993.791	492.8
994.173	495.2
994.576	514
994.959	478.4
995.341	484
995.724	486.8
996.128	494.4
996.511	492.4
996.894	486.6
997.298	482.2
997.681	491.8
998.065	495
998.448	486.6
998.854	491.6
999.237	483.8
999.621	499.6
1000.01	492.8
1000.39	486.2
1000.8	483.6
1001.18	497.8
1001.56	489.2
1001.95	490.4
1002.33	497.2
1002.72	491.6
1003.13	485.2
1003.51	483.2
1003.9	488.2
1004.28	499.6
1004.67	488.8
1005.06	487.4
1005.44	518.6
1005.83	480.2
1006.21	486.6
1006.6	487.6
1006.99	502
1007.37	495
1007.76	491.4
1060.12	488.6
1060.51	484.8
1060.89	498.4
1061.28	496
1061.67	498.2
1062.06	494
1062.45	489.4
1062.83	479
1063.22	500.2
1063.61	523.2
1064	492.2
1064.39	493.8
1064.78	490.4
1065.14	497.4
1065.53	491
1065.92	488.6
1066.31	479
1066.7	498.8
1067.09	501.2
1067.46	500.8
1067.85	485.8
1068.24	483.6
1068.63	495.6
1069.02	484.2
1069.39	495.6
1069.78	492.2
1070.17	493
1070.57	485.8
1070.93	496
1071.33	485.2
1071.72	491.6
1072.11	486.8
1072.48	489.4
1072.87	495.2
1073.26	492
1073.64	488.4
1074.03	478.4
1074.4	489
1074.79	490.2
1075.19	488.8
1075.56	487.6
1075.95	488.6
1076.34	489
1076.72	486.4
1077.11	494.4
1077.48	496.4
1077.88	492
1078.25	486
1078.64	496.4
1079.02	496
1079.41	498.8
1079.78	486
1080.18	483.2
1080.55	540.8
1080.95	481.4
1081.32	490.8
1081.72	496.8
1082.09	499
1082.49	480.8
1082.86	494.4
1083.24	483.8
1083.63	487
1084.01	486.6
1084.38	491
1084.78	489.8
1085.16	488.4
1085.55	494.4
1085.93	501.4
1086.31	488
1086.7	514.2
1087.08	493.4
1087.46	485.6
1087.83	483.6
1088.23	500.2
1088.61	485.8
1088.99	484.4
1089.36	479.6
1089.76	486.8
1090.14	485.6
1090.52	484.8
1090.9	481.2
1091.27	485.2
1091.67	500.4
1092.05	491.6
1092.43	483.4
1092.81	502
1093.19	497.4
1093.57	486.6
1093.95	482.2
1094.35	498.4
1094.73	496.8
1095.11	484.2
1095.49	483.4
1095.87	486.2
1096.25	497.6
1096.63	499.6
1097.01	487.4
1097.39	486
1097.77	495.4
1098.15	483.8
1098.53	483.8
1098.91	484.8
1099.29	485.2
1099.68	505.4
1100.06	493
1100.44	490.4
1100.82	495.6
1101.18	492.8
1101.56	483.4
1101.95	484.4
1102.33	488.2
1102.71	493.8
1103.1	492.6
1103.48	474.2
1103.86	484.8
1104.22	491.4
1104.61	483.2
1104.99	489.2
1105.38	483.6
1105.76	487.8
1106.12	486.2
1106.51	522.8
1106.89	493.6
1107.26	494.2
1107.64	493.2
1108.03	489.6
1108.41	493.6
1108.78	490.4
1109.16	484.6
1109.55	494.8
1109.91	483.2
1110.3	486.6
1110.69	501
1111.05	486.8
1111.44	486
1111.8	484.8
1112.19	491.8
1112.58	491.2
1112.94	489
1113.33	491.6
1113.7	486
1114.09	483
1114.45	479.4
1114.84	486
1115.21	500.4
1115.6	479.6
1115.96	493
1116.35	491.4
1116.72	485.8
1117.11	486.2
1117.48	488.8
1117.85	493
1118.24	501
1118.6	481.6
1118.99	482
1119.36	489
1119.73	476.4
1120.12	487.6
1120.49	474.4
1120.86	492.8
1121.25	480.6
1121.62	476.8
1121.99	488.2
1122.38	487.8
1122.76	484.2
1123.13	489.2
1123.5	480
1123.89	493.2
1124.26	477.4
1124.63	479.6
1125	485.6
1125.4	474
1125.77	478.8
1126.14	478
1126.51	474
1126.88	480.4
1127.26	480.6
1127.63	470.4
1128.02	486
1128.4	479.8
1128.77	483.8
1129.14	482.2
1129.52	487.4
1129.89	484
1130.26	480.6
1130.64	473
1131.01	475.8
