#lambda/nm	C1
208.295	467.8
208.67	434.6
209.045	397.2
209.419	398.8
209.794	542.8
210.169	523.4
210.544	630.2
210.919	539.8
211.295	534.8
211.67	542
212.045	531.8
212.421	532
212.796	565.2
213.172	536.2
213.547	533
213.923	533.8
214.299	525.8
214.675	534.2
215.051	537.8
215.427	540
215.803	554.2
216.179	540.4
216.555	531.6
216.932	541
217.308	540.2
217.684	537.2
218.061	540.6
218.438	534.2
218.814	540.6
219.191	549.8
219.568	528.4
219.945	536
220.322	544.4
220.699	542.6
221.076	548.8
221.453	534.4
221.83	533
222.208	531.6
222.585	528.2
222.962	533.4
223.34	536.2
223.717	534.4
224.095	528.2
224.473	539
224.851	534.4
225.229	533
225.607	546
225.985	528.8
226.363	540
226.741	537.2
227.119	541.4
227.497	539.6
227.876	525
228.254	544.6
228.633	538
229.011	534.2
229.39	533
229.769	533.2
230.148	540.2
230.527	553.2
230.905	537
231.284	539.2
231.664	522
232.043	545.2
232.422	531
232.801	527.8
233.181	542.2
233.56	527.4
233.94	541.6
234.319	541.6
234.699	533.8
235.079	572.6
235.458	566
235.838	547.8
236.218	526.4
236.598	529
236.978	532.4
237.358	535
237.738	532.2
238.119	535.2
238.499	530
238.88	534.8
239.26	546.6
239.641	523.6
240.021	528.2
240.402	533.4
240.783	537.4
241.163	538
241.544	534
241.925	536
242.306	544.2
242.687	528.6
243.069	537
243.45	537.8
243.831	531.6
244.212	537.2
244.594	567.4
244.975	538.6
245.357	543.8
245.739	534.2
246.12	529.2
246.502	547.6
246.884	535.8
247.266	537
247.648	534.4
248.03	550.4
248.412	537.4
248.794	544.4
249.176	530
249.559	538.6
249.941	528
250.323	521.8
250.706	517.2
251.089	534
251.471	534
251.854	543.8
252.237	536
252.62	532.6
253.002	537.8
253.385	533.2
253.769	545
254.152	535.8
254.535	540.4
254.918	521.8
255.301	530.8
255.685	534.2
256.068	526.4
256.452	550.6
256.835	538.2
257.219	540.8
257.603	551.4
257.986	531.8
258.37	533.6
258.754	522
259.138	539.4
259.522	540.2
259.906	537.4
260.29	535.8
260.675	530.2
261.059	534.4
261.443	523.2
261.828	535.6
262.212	537.2
262.597	524
262.981	526.4
263.366	546.2
263.751	535.6
264.136	527.2
264.521	527.4
264.906	526.2
265.291	546
265.676	534.6
266.061	538.8
266.446	551.6
266.831	536.2
267.217	545.6
267.602	534.2
267.987	541
268.373	532.6
268.759	545
269.144	540.6
269.53	539.2
269.916	528.4
270.302	535
270.688	543
271.074	535.6
271.46	535
271.846	561.4
272.232	529
272.618	530.8
273.004	532.6
273.391	533.2
273.777	546.8
274.164	541.4
274.55	548.4
274.937	532.4
275.324	532.4
275.71	549
276.097	536
276.484	531
276.871	531.6
277.258	533.8
277.645	531
278.032	535
278.419	538
278.807	545
279.194	534.8
279.581	538.4
279.969	545.2
280.356	538.4
280.744	533.8
281.131	560
281.519	542
281.907	539.2
282.295	533.8
282.682	544.8
283.07	535
283.458	539.2
283.846	546.8
284.235	545.8
284.623	546.4
285.011	524.2
285.399	541.2
285.788	541.4
286.176	529.2
286.565	544
286.953	525.2
287.342	540.2
287.731	528.6
288.119	524.2
288.508	532.2
288.897	535.4
289.286	524.8
289.675	534.6
290.064	548.6
290.453	532.6
290.821	531.8
291.21	546.6
291.599	530.6
291.989	539.8
292.378	542.6
292.768	550.2
293.157	541.8
293.547	528
293.936	541.6
294.326	524.2
294.716	536.2
295.106	530.2
295.496	538.8
295.886	544.4
296.276	535.8
296.666	531.2
297.056	525
297.446	522
297.836	551.4
298.227	535.2
298.617	540.6
299.008	550.8
299.398	532.8
299.789	530
300.179	534.2
300.57	541.4
300.961	533
301.352	530.6
301.742	541.2
302.133	545.8
302.524	537.2
302.915	530
303.307	533.6
303.698	545.6
304.089	534.2
304.48	537.4
304.872	536.6
305.263	532.8
305.655	532.2
306.046	544
306.438	542.6
306.829	531.6
307.221	546.6
307.613	542.4
308.005	542.2
308.397	546
308.789	552.8
309.181	553.4
309.573	552.2
309.965	546.6
310.357	533.6
310.749	543
311.142	530.4
311.534	531.6
311.926	551
312.319	539.8
312.711	536.4
313.104	548.2
313.497	538.4
313.889	568.2
314.282	543.4
314.675	562
315.068	539.4
315.461	536.4
315.854	567.4
316.247	543.8
316.64	534.6
317.033	526.6
317.405	545.6
317.798	540.2
318.192	541.4
318.585	531.8
318.979	539.6
319.372	532.6
319.766	539.2
320.16	550.8
320.553	545.2
320.947	549.6
321.341	535.6
321.735	530.2
322.129	518.8
322.523	556.6
322.917	532.2
323.311	546.6
323.705	534.8
324.099	548.8
324.494	552.8
324.888	540.6
325.282	535.4
325.677	553.8
326.071	547.8
326.466	552.2
326.861	540.2
327.255	546.4
327.65	546
328.045	548.4
328.44	540
328.835	536.2
329.23	538.2
329.625	553.6
330.02	527.2
330.415	552
330.81	543.4
331.206	543.8
331.601	537.2
331.996	544.2
332.37	553.8
332.766	531.6
333.161	541.4
333.557	526.2
333.953	533
334.348	833.4
334.744	539.8
335.14	539
335.536	535.2
335.932	539
336.328	535.6
336.724	541.4
337.12	537.2
337.516	538.8
337.913	534.4
338.309	546.4
338.705	538.6
339.102	541
339.498	530.6
339.895	544.2
340.291	529
340.688	545.2
341.085	530.8
341.481	532.8
341.878	533.2
342.275	543
342.672	534.4
343.069	527.6
343.466	532.8
343.842	541
344.239	528
344.636	535
345.033	528.6
345.431	533
345.828	534.2
346.225	528
346.623	562.4
347.02	533.8
347.418	532.8
347.816	544.4
348.213	525.4
348.611	536.6
349.009	530
349.407	538.4
349.805	524
350.203	521.2
350.601	534.4
350.999	527
351.397	587
351.795	530.2
352.193	536.4
352.57	542.4
352.969	544.8
353.367	528.4
353.766	526.6
354.164	533.8
354.563	539
354.961	533.8
355.36	528.8
355.759	535.8
356.158	523.4
356.557	520.2
356.956	521
357.355	519.6
357.754	529.2
358.153	535.6
358.552	553
358.951	527
359.35	549.4
359.75	526.8
360.149	529.6
360.527	525
360.926	517
361.326	524
361.726	537
362.125	523
362.525	536.8
362.925	523.8
363.325	537.2
363.724	530.6
364.124	523.8
364.524	522.8
364.924	532.4
365.324	535
365.725	521.4
366.125	538.4
366.525	523.4
366.904	524.4
367.304	514.6
367.705	543.2
368.105	541
368.506	527.4
368.906	523.6
369.307	527.4
369.708	534.2
370.108	518.4
370.509	536.6
370.91	520
371.311	532
371.712	526.2
372.113	533.6
372.514	514.6
372.894	520.4
373.295	522.2
373.696	543
374.097	527
374.499	550.8
374.9	531
375.301	525.6
375.703	529.2
376.105	524
376.506	522.4
376.908	531.8
377.309	528.6
377.711	532.4
378.113	524.6
378.493	524.8
378.895	533.8
379.297	532.2
379.699	515.2
380.102	526.4
380.504	531.2
380.906	534.6
381.308	553.4
381.71	527.6
382.113	541.6
382.515	531.8
382.918	531.2
383.299	529.4
383.701	528.4
384.104	525.6
384.507	505
384.909	529.4
385.312	524.8
385.715	514.4
386.118	530.8
386.521	520.2
386.924	540.8
387.327	523.6
387.709	518.4
388.112	522
388.515	529.2
388.918	524.8
389.322	532.6
389.725	525.2
390.129	543.2
390.532	529.6
390.936	525.6
391.339	522.6
391.743	526.6
392.125	518
392.529	533
392.933	534.2
393.337	530
393.74	527.4
394.144	521.8
394.548	527.8
394.953	519
395.357	535.2
395.761	526.4
396.144	529.2
396.548	527.2
396.952	529.4
397.357	519.6
397.761	520
398.166	529.2
398.57	519.8
398.975	517
399.379	533.2
399.763	565.2
400.168	516
400.572	530.6
400.977	520.6
401.382	544
401.787	530
402.192	541.4
402.597	535.6
403.002	520.6
403.386	546.4
403.791	541.4
404.197	524
404.602	531.8
405.007	526
405.413	525
405.818	526.2
406.224	521.8
406.608	529.4
407.014	519.4
407.42	539.2
407.825	525
408.231	538.6
408.637	532.2
409.043	541.8
409.449	523.6
409.834	522
410.24	528.4
410.646	533.8
411.052	530.4
411.458	533.6
411.865	532.4
412.271	540
412.677	531.8
413.062	534.8
413.469	522
413.875	544
414.282	543
414.689	528.4
415.095	537
415.502	523.4
415.888	536.8
416.294	515.6
416.701	568.4
417.108	523.6
417.515	527.2
417.923	530.2
418.33	549.4
418.715	533.2
419.123	525.6
419.53	528.8
419.937	532.6
420.345	538
420.752	521
421.16	540.8
421.546	529
421.953	541.8
422.361	522.8
422.769	534.6
423.177	519
423.585	544.4
423.992	543
424.379	538.6
424.787	538.8
425.195	550.6
425.603	523.4
426.011	536.4
426.419	545.4
426.806	528.4
427.214	538.4
427.623	542.4
428.031	550
428.44	538.8
428.848	549.2
429.235	555.8
429.644	559.6
430.053	566.8
430.461	584.8
430.87	601.6
431.279	600.4
431.666	595.6
432.075	614.4
432.484	637.2
432.893	643
433.302	659.6
433.711	702.2
434.099	703
434.508	714.4
434.918	721.4
435.327	754.8
435.737	788.6
436.125	800.8
436.534	827
436.944	843.2
437.353	854
437.763	887.6
438.173	893.2
438.561	923.6
438.971	934.6
439.381	953.4
439.791	979.8
440.201	989
440.589	1010.6
440.999	1045.6
441.409	1045.4
441.819	1056.4
442.23	1075.2
442.619	1101.6
443.029	1097.8
443.439	1113.8
443.85	1147
444.26	1152.6
444.649	1125.4
445.06	1152.2
445.471	1160.2
445.881	1184.2
446.292	1212
446.682	1226.6
447.092	1207
447.503	1243.6
447.914	1224.4
448.325	1244.6
448.715	1228
449.126	1247.6
449.537	1247.8
449.948	1242.8
450.338	1269.4
450.75	1265.2
451.161	1266.6
451.572	1283.8
451.984	1281.8
452.374	1267.2
452.786	1281
453.197	1285.2
453.609	1295.4
453.999	1274.8
454.411	1282.8
454.823	1301.8
455.235	1297
455.647	1293.6
456.037	1299.2
456.449	1281.2
456.862	1294.8
457.274	1316.8
457.665	1302
458.077	1312.6
458.489	1334.2
458.902	1305.6
459.293	1312.6
459.705	1311.8
460.118	1290.6
460.53	1304.8
460.921	1312.8
461.334	1323.2
461.747	1311.2
462.16	1328
462.551	1337.6
462.964	1306.8
463.377	1312
463.79	1300.4
464.182	1313.8
464.595	1308
465.008	1317.8
465.421	1319.2
465.813	1311.8
466.226	1319.4
466.64	1304.6
467.053	1346.8
467.445	1327.2
467.859	1326.8
468.272	1323.6
468.686	1344.6
469.078	1312.6
469.492	1319
469.906	1325.4
470.298	1334.2
470.712	1324.6
471.126	1332.2
471.54	1303
471.933	1310
472.347	1306
472.761	1299.6
473.175	1302.8
473.568	1307.2
473.982	1290.4
474.397	1289.8
474.79	1293.8
475.204	1301
475.619	1279.2
476.033	1287.8
476.426	1273
476.841	1266.4
477.256	1292.2
477.649	1258.6
478.064	1248.6
478.479	1248.4
478.872	1241.2
479.287	1237.2
479.702	1236.4
480.118	1249.6
480.511	1249.4
480.927	1247.8
481.342	1238.8
481.736	1239.2
482.151	1228
482.566	1228.2
482.96	1236.8
483.376	1227.2
483.792	1212.4
484.186	1216
484.602	1205.6
485.017	1202.8
485.412	1184
485.827	1191.6
486.243	1184
486.638	1196.2
487.054	1174.8
487.47	1174.4
487.865	1152.4
488.281	1156.8
488.697	1158
489.092	1153.2
489.508	1138.6
489.925	1156.6
490.32	1131.6
490.736	1137.8
491.153	1125.2
491.548	1134.6
491.964	1119.4
492.381	1104.8
492.776	1110.8
493.193	1101.2
493.61	1100.4
494.006	1107
494.422	1096.2
494.84	1092.6
495.235	1082
495.652	1079.6
496.069	1076.6
496.465	1066
496.883	1056.4
497.3	1087.6
497.696	1043.6
498.113	1051.6
498.509	1032.6
498.927	1019.6
499.344	1016.2
499.741	1029.4
500.158	1022.6
500.576	1036.4
500.973	1013.6
501.39	996.2
501.787	1000.6
502.205	976
502.623	987.2
503.02	971.8
503.438	975
503.856	985.6
504.253	981.6
504.671	970
505.068	962.2
505.486	965
505.905	959.2
506.302	948.2
506.72	954
507.118	939.4
507.536	945
507.955	926.6
508.352	931.2
508.771	936.6
509.169	929.8
509.587	920.2
510.006	912.4
510.404	906.4
510.823	903.4
511.221	901.6
511.64	893
512.038	904.2
512.457	892.8
512.877	882.8
513.275	888.2
513.694	879.6
514.092	882.8
514.512	868
514.91	861
515.33	858.4
515.749	865.6
516.148	866.2
516.568	862
516.966	853.6
517.386	839.8
517.785	845.8
518.205	833.4
518.603	836.6
519.024	829.4
519.444	838.4
519.843	827
520.263	820.2
520.662	822
521.082	813
521.481	814
521.902	816.6
522.301	801.6
522.722	816
523.121	787.2
523.542	794.2
523.963	778.8
524.362	781.2
524.783	798
525.183	779
525.604	782
526.003	766.4
526.425	760.4
526.824	790
527.246	773.2
527.646	779.2
528.067	759.6
528.467	759
528.888	752.6
529.289	758
529.71	746
530.11	741.2
530.532	739.2
530.932	725.6
531.354	741.2
531.755	769.8
532.176	738.6
532.577	731.6
532.999	734
533.4	713.8
533.822	725.6
534.223	715.6
534.645	718.2
535.046	715.8
535.468	719.2
535.869	719.6
536.292	712
536.693	740.4
537.115	702.6
537.516	704
537.939	700
538.34	712.4
538.742	709.6
539.165	692.2
539.566	698.6
539.989	690.6
540.391	685.8
540.814	691.4
541.216	692
541.639	689.8
542.041	695.4
542.464	678
542.866	677.2
543.268	670.2
543.691	672.6
544.093	680.8
544.517	689.4
544.919	665.4
545.343	692.8
545.745	667.4
546.147	667.4
546.571	667.4
546.974	654.2
547.398	669.4
547.8	674.8
548.224	657.8
548.627	653
549.03	672.8
549.454	645
549.857	638
550.281	653
550.684	649.6
551.087	651.4
551.512	646.4
551.915	652.4
552.34	646.8
552.743	640.6
553.146	642
553.571	632
553.975	652.2
554.399	622.4
554.803	665
555.207	628.2
555.632	623.2
556.036	632.6
556.461	619.6
556.865	620.8
557.268	617
557.694	618.8
558.098	623.4
558.502	616.8
558.927	614.2
559.332	614.6
559.736	622.6
560.162	615.4
560.566	606.8
560.992	616.8
561.396	604
561.801	606.6
562.227	606.8
562.631	605.6
563.036	602
563.462	615
563.867	608.6
564.272	586.4
564.698	600.8
565.103	608.2
565.508	612.8
565.935	607
566.34	603.4
566.745	607.8
567.172	601.6
567.577	614
567.982	601.6
568.409	595.2
568.815	583.6
569.22	592
569.626	591.8
570.053	585.4
570.459	596
570.865	588.4
571.292	590.2
571.698	595.4
572.104	573.4
572.531	577.2
572.937	596.2
573.343	588.4
573.75	585.2
574.177	578
574.583	587.6
574.99	583.2
575.396	579.2
575.824	575
576.231	582
576.637	568.4
577.065	600.6
577.472	574.2
577.879	575
578.286	578.4
578.714	574.2
579.121	565.6
579.528	572
579.935	581.6
580.364	574.6
580.771	559
581.178	561
581.585	572.4
582.014	572.4
582.421	563.4
582.829	561.6
583.236	574.2
583.644	555.8
584.073	556
584.481	559.2
584.889	551.4
585.296	567.2
585.726	559
586.134	546.4
586.542	552.6
586.95	570.8
587.358	547.6
587.787	553
588.196	540.6
588.604	550
589.012	553.4
589.421	547.4
589.851	540.6
590.259	557.8
590.668	554.8
591.076	587.8
591.485	543.2
591.894	548.8
592.324	562.6
592.733	565.6
593.142	534.2
593.551	549
593.96	575.8
594.369	546.2
594.8	544
595.209	549.2
595.618	532.8
596.028	541.6
596.437	535.8
596.847	543.8
597.256	547.4
597.687	538.8
598.097	544
598.507	531.8
598.917	541.6
599.327	545.6
599.736	539.8
600.146	542
600.556	537.6
600.988	546
601.398	540
601.808	535.6
602.219	519
602.629	541.8
603.039	530.8
603.45	550.6
603.86	535
604.271	539.4
604.703	536.8
605.114	530.4
605.525	528.6
605.935	537.2
606.346	552.2
606.757	536.2
607.168	528.6
607.579	535.4
607.99	533.6
608.402	535.4
608.813	540.4
609.224	525.2
609.636	520.6
610.047	520.4
610.48	536.2
610.892	535.2
611.303	534
611.715	526.8
612.127	525.2
612.539	529
612.95	531
613.362	522.6
613.774	523
614.186	524.4
614.599	522.8
615.011	540.2
615.423	524.4
615.835	522
616.248	522.4
616.66	530.2
617.073	527.4
617.485	531.8
617.898	531
618.311	528.2
618.723	528.8
619.136	556.6
619.549	548.2
619.962	550.8
620.375	530.8
620.788	524.4
621.201	521.2
621.614	531
622.028	530
622.441	528.6
622.854	538.4
623.268	521
623.681	532.2
624.095	534.4
624.509	535.2
624.922	535.4
625.336	518.6
625.728	531.8
626.142	534.6
626.556	547.4
626.97	536.4
627.384	523.6
627.799	525.4
628.213	539.6
628.627	522.2
629.041	519.4
629.456	522.8
629.87	524.4
630.285	535.4
630.699	530
631.093	521.8
631.507	530.2
631.922	527.2
632.337	528.2
632.752	522
633.167	524
633.582	515.2
633.997	517.2
634.412	511.4
634.806	520.6
635.221	512.4
635.637	522.4
636.052	511.6
636.468	521.8
636.883	539.6
637.299	519
637.715	517.4
638.109	514
638.525	513.8
638.941	529.8
639.357	527.6
639.773	526.8
640.189	511.8
640.584	518
641	527.2
641.416	512.6
641.832	515.8
642.249	517.8
642.665	514.8
643.06	517.2
643.477	523.2
643.894	507.2
644.31	516.8
644.727	515.6
645.123	517.6
645.54	513
645.957	522.8
646.374	527.4
646.77	507.8
647.187	544.2
647.604	515.2
648.021	506.4
648.439	513
648.835	518.2
649.252	518.2
649.67	512.4
650.088	509.2
650.484	518
650.902	518.2
651.32	516.6
651.738	511.2
652.134	509.4
652.552	526.4
652.971	519.8
653.389	515.2
653.786	532
654.204	523.2
654.622	511.2
655.019	520.8
655.438	519.6
655.857	514.6
656.275	510.8
656.673	503.2
657.091	525.6
657.51	499.6
657.908	518.4
658.327	517.4
658.746	506.8
659.144	513.2
659.563	520.4
659.982	516.6
660.38	503
660.8	518.6
661.219	525.2
661.617	520.6
662.037	513.6
662.457	523
662.855	499.8
663.275	547.6
663.695	515.2
664.094	513.8
664.514	514
664.934	502.6
665.333	518.8
665.753	508
666.152	505.2
666.572	504.2
666.993	520.6
667.392	514.4
667.812	509.4
668.212	511
668.632	519.6
669.053	506.2
669.453	518.6
669.874	512.8
670.273	520.6
670.694	511.4
671.116	516.2
671.515	517.8
671.937	508.2
672.337	507.6
672.758	510.8
673.158	518.4
673.58	505
673.98	507.2
674.402	520
674.824	503.6
675.224	509
675.646	506
676.047	513.2
676.469	511.6
676.869	510.8
677.292	511.6
677.693	510.2
678.115	499.6
678.516	516.6
678.939	508
679.34	501.2
679.762	513
680.164	514.4
680.586	498.6
680.988	508.8
681.411	527.2
681.812	510.8
682.236	501.4
682.637	497.2
683.061	496.2
683.462	506.2
683.864	501.6
684.288	502.8
684.69	503.4
685.114	514.4
685.516	512.4
685.94	497.4
686.342	516.2
686.766	508.6
687.168	504.2
687.571	523.6
687.995	515.8
688.398	500.2
688.822	507
689.225	513.2
689.628	522.2
690.052	509.8
690.456	513.6
690.88	503.4
691.284	501.4
691.687	513.8
692.112	503.2
692.515	505.2
692.919	511.4
693.344	505.6
693.747	503.6
694.173	497.6
694.577	511
694.98	503
695.406	507.4
695.81	509
696.214	502.8
696.64	511
697.044	509.4
697.448	508.2
697.874	502.4
698.279	500.2
698.684	495.2
699.11	503.2
699.514	505
699.919	506.4
700.324	498.8
700.75	509.6
701.156	506.8
701.561	510
701.987	514.8
702.393	515
702.798	513.4
703.203	509.6
703.63	506.4
704.036	498
704.442	507
704.847	505.8
705.274	500.6
705.68	511.6
706.086	512.8
706.492	506.6
706.92	511.8
707.326	514.6
707.732	505.8
708.139	501
708.545	503.8
708.973	498.4
709.38	508.2
709.786	498.6
710.193	516
710.6	513.4
711.028	504.8
711.435	502.6
711.842	503.2
712.249	499.6
712.656	504.6
713.064	512.6
713.492	499.6
713.9	509.6
714.307	510.4
714.715	505.8
715.123	501.8
715.53	516.8
715.938	509
716.367	502
716.775	502.4
717.184	501.6
717.592	499.6
718	515
718.408	528.4
718.816	532.2
719.225	506.8
719.633	507.4
720.042	500.2
720.472	505.4
720.881	519.6
721.29	506.2
721.699	494
722.108	506.8
722.517	500.6
722.926	504.2
723.335	511.6
723.744	505
724.154	508.4
724.563	501.2
724.973	505.6
725.382	504.8
725.792	507.6
726.202	496.8
726.612	517.4
727.022	507.6
727.432	503
779.813	503.6
780.223	549.8
780.634	499.2
781.044	505.4
781.454	503.6
781.865	513.8
782.276	497.6
782.686	508.8
783.097	496
783.508	497
783.919	501.2
784.33	503.6
784.741	513.8
785.152	498.6
785.563	491.6
785.974	507.4
786.386	513.6
786.776	496
787.188	503.8
787.599	496
788.011	509.4
788.423	502.8
788.835	497.6
789.247	494
789.659	496.6
790.071	490
790.483	534.8
790.874	497.4
791.286	510.8
791.699	508.6
792.111	504.2
792.524	508.2
792.937	508.8
793.349	500
793.741	493.2
794.154	497.8
794.567	514.2
794.98	507
795.393	497.4
795.785	514.6
796.198	506.8
796.612	498.8
797.026	500.2
797.439	494.8
797.831	498.2
798.245	488.2
798.659	497
799.073	499.6
799.487	494.2
799.88	496.8
800.294	501.8
800.708	499
801.123	504
801.516	514
801.93	490.6
802.345	495.6
802.76	504.8
803.153	514.8
803.568	508.8
803.983	507.6
804.377	506.8
804.792	488.6
805.207	482.6
805.601	500.8
806.016	528.6
806.432	496.4
806.826	525.6
807.242	513.8
807.658	502.8
808.052	496.4
808.468	500.6
808.884	496.4
809.279	498
809.695	508.8
810.111	515
810.506	505.2
810.922	515.2
811.339	502.2
811.734	511.8
812.151	504.4
812.546	499.8
812.963	494.6
813.38	506.8
813.776	494.8
814.193	514.2
814.589	493.8
815.006	500.4
815.402	498.4
815.82	503.2
816.237	495.4
816.633	500.4
817.051	497.4
817.448	506.8
817.866	492.2
818.262	511.2
818.68	494
819.077	497.4
819.495	499.2
819.892	530.8
820.311	496.2
820.708	495
821.127	496.4
821.524	514.2
821.943	501.2
822.34	520.2
822.759	502.6
823.157	504.8
823.576	511.4
823.974	494
824.393	592
824.791	493
825.189	495
825.609	496.8
826.007	499.8
826.427	491.2
826.826	505
827.246	503.6
827.644	488.2
828.043	502.8
828.463	494.4
828.862	510.8
829.261	507.8
829.682	492.6
830.081	505.8
830.502	494.4
830.901	498.6
831.301	500.2
831.722	489
832.121	496.2
832.521	493
832.943	501.6
833.342	498.2
833.742	486.4
834.164	499.4
834.564	496.6
834.965	498
835.386	493
835.787	497
836.188	501.8
836.588	504.2
837.01	503.8
837.411	492.8
837.812	498.2
838.213	503
838.636	503.4
839.037	555.4
839.438	503.2
839.84	502.8
840.263	507
840.664	502
841.066	499
841.468	497.4
841.891	492.2
842.293	505.6
842.695	504.8
843.098	513.2
843.5	496
843.902	495.2
844.326	498.6
844.729	499.2
845.131	507.2
845.534	498
845.937	505.4
846.34	510.2
846.764	497
847.167	497.4
847.571	492.4
847.974	496.6
848.377	493
848.781	540.8
849.184	504.6
849.588	492.8
849.992	501.8
850.396	502.8
850.821	514
851.225	507.4
851.63	499
852.034	511.4
852.438	498.2
852.843	568.4
853.247	492
853.652	494.6
854.057	507.2
854.462	499.2
854.867	498.4
855.272	518
855.677	498.8
856.082	496.6
856.487	488.8
856.893	502.4
857.298	495.8
857.704	496.6
858.11	503.4
858.516	504.4
858.922	486.4
859.328	509.8
859.734	496.2
860.14	504.6
860.525	501.8
860.931	496
861.338	503.2
861.745	498
862.151	508.8
862.558	502.8
862.965	497.2
863.372	491.6
863.779	494.2
864.186	514.8
864.572	501.2
864.98	516.8
865.387	521.8
865.795	494.4
866.203	501
866.61	487.4
867.018	507.8
867.405	506
867.813	491.8
868.221	495.2
868.63	485
869.038	504.6
869.425	527.6
869.834	499.6
870.243	492.4
870.652	493
871.039	498.6
871.448	498
871.857	493
872.266	502.2
872.654	510.4
873.064	495.4
873.473	509.2
873.883	490.4
874.271	493.8
874.681	503.8
875.091	489.6
875.48	509.4
875.89	513.8
876.3	488.4
876.689	493.4
877.1	490.6
877.51	494.6
877.9	508.2
878.31	489.2
878.721	516.4
879.111	493.8
879.522	492.4
879.933	486
880.323	494.6
880.734	493
881.125	500.2
881.536	496
881.948	492.6
882.338	494.4
882.75	499.4
883.141	489.6
883.553	505
883.944	519.2
884.356	503.6
884.769	498
885.16	498.4
885.573	500.6
885.964	495.6
886.377	500.2
886.768	481
887.181	496
887.573	493.4
887.987	503.6
888.378	509.6
888.792	502.8
889.184	534.4
889.598	493
889.99	503.2
890.383	493.6
890.797	487
891.19	501.2
891.604	491.4
891.997	495.8
892.411	488.6
892.805	485
893.198	494.4
893.613	486.4
894.006	495.4
894.421	490.8
894.815	498.4
895.209	486.6
895.624	530.6
896.018	508.2
896.412	498
896.828	495.2
897.222	504.4
897.617	495
898.033	512.6
898.427	494.4
898.822	494.2
899.239	490.6
899.634	491.2
900.029	506
900.424	492.8
900.841	482
901.236	502.4
901.632	499
902.027	541
902.445	499.2
902.841	496.6
903.237	487.2
903.633	505.4
904.05	497.8
904.447	497.2
904.843	510
905.24	493.2
905.636	492.4
906.033	494
906.451	508.2
906.848	494.2
907.246	502.2
907.643	509.2
908.04	507
908.438	507.6
908.835	497.4
909.254	502.6
909.652	502.6
910.05	486
910.448	490.4
910.846	493
911.244	486.6
911.643	506
912.041	493
912.44	509.4
912.839	489
913.237	485.2
913.636	485.6
914.035	502.4
914.434	494.8
914.834	503
915.233	499.8
915.633	492.6
916.032	487
916.432	490.6
916.832	504.2
917.232	500.2
917.632	487
918.032	500.2
918.432	492.4
918.833	499.4
919.233	495
919.634	491
920.035	501.6
920.436	496.4
920.837	505.2
921.238	491.4
921.639	491.4
922.019	492.2
922.42	499.4
922.822	497.4
923.224	492.6
923.625	491
924.027	497.8
924.429	502.8
924.81	499.8
925.212	498
925.615	497.4
926.017	498
926.42	502.2
926.801	492.4
927.204	492.8
927.607	500.2
928.01	501
928.413	492.4
928.795	484
929.199	483.6
929.602	490.6
930.006	486
930.388	491.2
930.792	498.4
931.196	495.6
931.579	521.2
931.983	484.2
932.388	536.4
932.771	491
933.176	486.4
933.58	489.2
933.964	495.2
934.369	484.6
934.774	498.2
935.158	492.2
935.563	489
935.947	498.4
936.353	498.4
936.759	495.4
937.143	506.4
937.549	494
937.934	505.8
938.34	517.8
938.746	488
939.131	496.2
939.538	495.6
939.923	495.4
940.33	486.6
940.716	490.2
941.123	494.8
941.508	499.8
941.916	501
942.302	498
942.709	485.6
943.096	489.8
943.503	506.8
943.89	491.6
944.298	496.6
944.685	513.4
945.072	490.6
945.48	508.6
945.867	476
946.276	490.8
946.663	517.2
947.051	504
947.46	505.2
947.848	497
948.257	491.8
948.645	496
949.033	491.2
949.443	488.8
949.831	524.8
950.22	485.4
950.63	494
951.018	518.4
951.407	486
951.796	492.2
952.207	502.8
952.596	496.2
952.985	483.8
953.375	525.6
953.786	494.8
954.176	488.8
954.566	500.6
954.956	495.6
955.367	497.6
955.758	517.2
956.148	497.4
956.539	502
956.929	491.6
957.341	486.6
957.732	487.6
958.123	494.8
958.515	493.8
958.906	497
959.297	495
959.689	491.8
960.102	485.4
960.494	498.4
960.886	492.2
961.278	490
961.67	510.8
962.062	522.8
962.455	491.8
962.847	481.4
963.24	492.6
963.633	494.6
964.026	493.4
964.419	492.4
964.812	500.8
965.206	485
965.599	493.8
965.993	497
966.386	489.8
966.78	501.6
967.174	511.4
967.569	496
967.963	488.2
968.357	488
968.752	488.8
969.146	490.2
969.541	486.6
969.936	489.4
970.331	503.6
970.705	490
971.1	492.2
971.496	495.8
971.892	483.6
972.287	491.2
972.683	495.4
973.079	493.8
973.454	497.8
973.85	490
974.247	505.4
974.643	515.6
975.04	491.8
975.415	495.4
975.812	491.6
976.209	497.2
976.607	487.8
976.982	502
977.38	510
977.778	496.4
978.175	482.6
978.552	489
978.95	492.2
979.348	505.2
979.725	532
980.123	490.2
980.522	494.8
980.899	498
981.298	490
981.697	500.2
982.075	489
982.474	487.4
982.852	497.4
983.251	493
983.651	493.6
984.029	494
984.429	492.6
984.808	479.2
985.208	491.4
985.609	480.4
985.987	478.6
986.388	492
986.768	497.4
987.168	487.2
987.548	495
987.949	499.4
988.329	491
988.731	483.4
989.111	492.2
989.491	489.8
989.893	490
990.273	494.2
990.676	486.8
991.057	485.6
991.459	485.8
991.84	489.8
992.221	482.8
992.624	504.6
993.006	495.6
993.388	496.2
993.791	502.8
994.173	492.4
994.576	516.2
994.959	473.2
995.341	487.8
995.724	484
996.128	488.4
996.511	499.4
996.894	492.4
997.298	489
997.681	497.2
998.065	486.4
998.448	486.8
998.854	501.8
999.237	488.2
999.621	503.4
1000.01	502.8
1000.39	490.2
1000.8	479
1001.18	501
1001.56	498
1001.95	507.4
1002.33	492.4
1002.72	490
1003.13	494.6
1003.51	492.8
1003.9	490.8
1004.28	502.8
1004.67	486
1005.06	485.6
1005.44	519.6
1005.83	482.8
1006.21	496
1006.6	487.4
1006.99	499.2
1007.37	495.2
1007.76	488.6
1060.12	484.6
1060.51	482.6
1060.89	494
1061.28	502.4
1061.67	505.8
1062.06	496.6
1062.45	486.8
1062.83	486.8
1063.22	501.8
1063.61	524.6
1064	499.6
1064.39	498.6
1064.78	485.2
1065.14	499
1065.53	491.8
1065.92	493.4
1066.31	486
1066.7	501.6
1067.09	496.6
1067.46	496.8
1067.85	488
1068.24	493
1068.63	498
1069.02	492.4
1069.39	488.2
1069.78	488
1070.17	490.4
1070.57	479
1070.93	491.6
1071.33	490.2
1071.72	489.2
1072.11	481.4
1072.48	482.8
1072.87	490.4
1073.26	490.4
1073.64	488.4
1074.03	479.4
1074.4	481.4
1074.79	489.2
1075.19	490.6
1075.56	492.4
1075.95	494
1076.34	489
1076.72	481.8
1077.11	499.6
1077.48	502
1077.88	494.6
1078.25	486.6
1078.64	495.8
1079.02	495.6
1079.41	498.8
1079.78	487
1080.18	486
1080.55	544.8
1080.95	484.4
1081.32	475.4
1081.72	493.8
1082.09	485.8
1082.49	494.4
1082.86	489
1083.24	477
1083.63	484
1084.01	490
1084.38	501.4
1084.78	478
1085.16	490.8
1085.55	489.2
1085.93	503.2
1086.31	476.4
1086.7	508
1087.08	490.6
1087.46	489.8
1087.83	482.2
1088.23	490
1088.61	489.2
1088.99	496.8
1089.36	485.4
1089.76	484.8
1090.14	483
1090.52	487.4
1090.9	490
1091.27	503.2
1091.67	515.8
1092.05	495.4
1092.43	490.2
1092.81	493.8
1093.19	495
1093.57	485.4
1093.95	487.4
1094.35	498.2
1094.73	499.6
1095.11	485.8
1095.49	490.2
1095.87	489.6
1096.25	504.2
1096.63	496.6
1097.01	491.2
1097.39	493.4
1097.77	489
1098.15	487.2
1098.53	489.8
1098.91	489.6
1099.29	484
1099.68	502
1100.06	494.8
1100.44	490.4
1100.82	486.2
1101.18	489.4
1101.56	487.6
1101.95	484.2
1102.33	488.2
1102.71	489.4
1103.1	483.8
1103.48	485.4
1103.86	484.4
1104.22	491.2
1104.61	488.2
1104.99	485.6
1105.38	483.2
1105.76	485.4
1106.12	487.2
1106.51	523.4
1106.89	487.8
1107.26	490.8
1107.64	505.8
1108.03	492
1108.41	489.6
1108.78	495.8
1109.16	483.2
1109.55	490.2
1109.91	480
1110.3	483.2
1110.69	499
1111.05	482.4
1111.44	478.6
1111.8	488.8
1112.19	493.2
1112.58	496.2
1112.94	493.2
1113.33	492.6
1113.7	486.4
1114.09	489.4
1114.45	488.6
1114.84	490.2
1115.21	483
1115.6	487.4
1115.96	497.4
1116.35	498.2
1116.72	491.6
1117.11	497
1117.48	491.8
1117.85	487
1118.24	498.8
1118.6	490.8
1118.99	477
1119.36	495.2
1119.73	491
1120.12	493
1120.49	482.2
1120.86	498.2
1121.25	486
1121.62	476.2
1121.99	477
1122.38	495.2
1122.76	493.2
1123.13	486.8
1123.5	494
1123.89	502.6
1124.26	483
1124.63	487
1125	480.6
1125.4	478.2
1125.77	479
1126.14	474.6
1126.51	488
1126.88	492.6
1127.26	491.6
1127.63	478.4
1128.02	481.4
1128.4	483.2
1128.77	482.6
1129.14	491
1129.52	491.8
1129.89	492.6
1130.26	478.2
1130.64	471.8
1131.01	484
