#lambda/nm	C1
208.295	459.6
208.67	432
209.045	395.2
209.419	395.4
209.794	531.8
210.169	525.6
210.544	625
210.919	536.8
211.295	525.8
211.67	536
212.045	526
212.421	530.6
212.796	563.4
213.172	531
213.547	532.2
213.923	527.2
214.299	532
214.675	541.2
215.051	536.8
215.427	539.4
215.803	548.6
216.179	536.6
216.555	537.4
216.932	546.6
217.308	543.8
217.684	542
218.061	540.8
218.438	536.6
218.814	533.6
219.191	543.8
219.568	536.2
219.945	540.6
220.322	536.2
220.699	540.8
221.076	547.2
221.453	533
221.83	526.2
222.208	530.2
222.585	532.6
222.962	533.6
223.34	539
223.717	534.4
224.095	537.4
224.473	531.6
224.851	532.4
225.229	520.4
225.607	556.6
225.985	527.4
226.363	543.2
226.741	538.2
227.119	535
227.497	538
227.876	526.6
228.254	539
228.633	540.8
229.011	540
229.39	547.6
229.769	548.2
230.148	542
230.527	557.4
230.905	533.8
231.284	537.2
231.664	529.4
232.043	549.8
232.422	538.6
232.801	531.6
233.181	542.2
233.56	533.6
233.94	534
234.319	533
234.699	537.4
235.079	565
235.458	568.6
235.838	547.6
236.218	531.4
236.598	519.4
236.978	535.4
237.358	530.2
237.738	530
238.119	546.2
238.499	524.4
238.88	533
239.26	543.8
239.641	525.2
240.021	531.4
240.402	531
240.783	534.2
241.163	541.4
241.544	541.6
241.925	536.4
242.306	547.8
242.687	525.4
243.069	538.6
243.45	539.4
243.831	522.2
244.212	536.8
244.594	562.2
244.975	542.4
245.357	541.4
245.739	530.8
246.12	538.8
246.502	548
246.884	528.2
247.266	538.4
247.648	536.2
248.03	561.4
248.412	539.4
248.794	535
249.176	531.8
249.559	549.4
249.941	532.6
250.323	530.6
250.706	528.8
251.089	534.2
251.471	533.6
251.854	543
252.237	542
252.62	547.4
253.002	534.4
253.385	539.4
253.769	539.8
254.152	533.8
254.535	542.8
254.918	532.8
255.301	538
255.685	534.4
256.068	536.8
256.452	554.2
256.835	537.8
257.219	536.8
257.603	546.2
257.986	526.8
258.37	547.6
258.754	529.4
259.138	534.8
259.522	544.6
259.906	532.8
260.29	538.2
260.675	522.4
261.059	541.4
261.443	527.2
261.828	540.8
262.212	539.4
262.597	519.4
262.981	532.4
263.366	536.6
263.751	535.6
264.136	530.2
264.521	534.4
264.906	528.6
265.291	544.2
265.676	535
266.061	547.8
266.446	545
266.831	534.6
267.217	554.4
267.602	541.4
267.987	535
268.373	535.2
268.759	542.8
269.144	545.8
269.53	536.4
269.916	534.2
270.302	538
270.688	543
271.074	537.6
271.46	550.2
271.846	563.2
272.232	530.2
272.618	527.8
273.004	535
273.391	548.6
273.777	545.4
274.164	541
274.55	544.4
274.937	536
275.324	543
275.71	535.4
276.097	542
276.484	533.6
276.871	542.4
277.258	541.8
277.645	526
278.032	540.4
278.419	538
278.807	536.4
279.194	531.6
279.581	537.4
279.969	535.4
280.356	536.6
280.744	538.6
281.131	554.8
281.519	549.2
281.907	528
282.295	534
282.682	537
283.07	539
283.458	541.8
283.846	550.8
284.235	549.8
284.623	537
285.011	533.2
285.399	536.4
285.788	533
286.176	525
286.565	546
286.953	535.4
287.342	531.4
287.731	527.4
288.119	524
288.508	527.2
288.897	537.8
289.286	526
289.675	532.4
290.064	543.8
290.453	534.4
290.821	533
291.21	548.6
291.599	539.6
291.989	544
292.378	544.8
292.768	546.4
293.157	543.6
293.547	540.6
293.936	540.2
294.326	540.4
294.716	544.2
295.106	538.2
295.496	549
295.886	540.4
296.276	537
296.666	532.4
297.056	536.2
297.446	520.4
297.836	550.8
298.227	533.2
298.617	534.4
299.008	539
299.398	534.6
299.789	535.6
300.179	535.4
300.57	541.6
300.961	532.6
301.352	534.2
301.742	548
302.133	543.4
302.524	529.6
302.915	538.6
303.307	532
303.698	543
304.089	539.2
304.48	540.8
304.872	536.2
305.263	538.4
305.655	532
306.046	534.6
306.438	544.2
306.829	529
307.221	542
307.613	541.2
308.005	537.8
308.397	542.6
308.789	549.8
309.181	552
309.573	546.6
309.965	549.4
310.357	534.4
310.749	540.8
311.142	528
311.534	527.8
311.926	542.6
312.319	535.4
312.711	531.6
313.104	550.4
313.497	535
313.889	561.8
314.282	547
314.675	557
315.068	536.4
315.461	538
315.854	566.8
316.247	537.2
316.64	533.4
317.033	534
317.405	540
317.798	541
318.192	540
318.585	534.8
318.979	538.4
319.372	528
319.766	528.6
320.16	538.8
320.553	547.8
320.947	551.4
321.341	527.2
321.735	540.2
322.129	523.6
322.523	557
322.917	533.2
323.311	539.2
323.705	532.8
324.099	537
324.494	544.2
324.888	538.2
325.282	537.8
325.677	544.2
326.071	541.6
326.466	548
326.861	533.4
327.255	548.4
327.65	540.4
328.045	547.4
328.44	542.6
328.835	536.4
329.23	528.4
329.625	550.8
330.02	534.4
330.415	547
330.81	535.6
331.206	540.4
331.601	520
331.996	536.8
332.37	557.6
332.766	532.6
333.161	555
333.557	534.4
333.953	533.4
334.348	876
334.744	536.6
335.14	530.8
335.536	531.2
335.932	545.4
336.328	542.6
336.724	545.2
337.12	532.6
337.516	538.6
337.913	540.4
338.309	545.2
338.705	542.2
339.102	550.2
339.498	536.4
339.895	547.2
340.291	531.8
340.688	549.6
341.085	532.2
341.481	531.4
341.878	530
342.275	553.2
342.672	524.8
343.069	536.6
343.466	522.8
343.842	544.4
344.239	530.8
344.636	537
345.033	528.2
345.431	529.8
345.828	540.8
346.225	533.2
346.623	560
347.02	532
347.418	544.2
347.816	544.6
348.213	523.8
348.611	536.8
349.009	523.8
349.407	543
349.805	524.6
350.203	529.6
350.601	543.6
350.999	534.6
351.397	585.2
351.795	539.2
352.193	541.8
352.57	538.6
352.969	546.4
353.367	524.8
353.766	529.2
354.164	530.8
354.563	537.8
354.961	536.4
355.36	528.6
355.759	536.8
356.158	527.8
356.557	534.4
356.956	523.8
357.355	519.6
357.754	532
358.153	530.8
358.552	545.4
358.951	533.6
359.35	534.8
359.75	529.6
360.149	526.8
360.527	521.6
360.926	525.8
361.326	537.6
361.726	529.6
362.125	516.2
362.525	532.2
362.925	531
363.325	527.4
363.724	531.6
364.124	523.4
364.524	529.2
364.924	530.4
365.324	534.2
365.725	522.6
366.125	534.2
366.525	527.4
366.904	526.4
367.304	518.4
367.705	543.8
368.105	544.2
368.506	537.8
368.906	527.4
369.307	528.6
369.708	535.2
370.108	525.4
370.509	541.4
370.91	527.6
371.311	529.4
371.712	538.4
372.113	527.8
372.514	522.4
372.894	524.4
373.295	529
373.696	537.4
374.097	532.4
374.499	556
374.9	534
375.301	529.8
375.703	533.8
376.105	520.2
376.506	534.4
376.908	528.6
377.309	536.8
377.711	527.4
378.113	524.6
378.493	531.6
378.895	531
379.297	539.8
379.699	511.6
380.102	529.6
380.504	526.2
380.906	522.2
381.308	545.8
381.71	526.4
382.113	536.4
382.515	525.4
382.918	526.8
383.299	526.2
383.701	536.2
384.104	531.6
384.507	513.6
384.909	523.2
385.312	523.8
385.715	517.8
386.118	530.2
386.521	515
386.924	535
387.327	522.8
387.709	523.4
388.112	516
388.515	530.4
388.918	528.8
389.322	527.8
389.725	524.8
390.129	546.6
390.532	537.4
390.936	526.2
391.339	520
391.743	530.2
392.125	527.6
392.529	533.2
392.933	538.2
393.337	523.2
393.74	528.4
394.144	528.2
394.548	528.2
394.953	521.4
395.357	529
395.761	520.6
396.144	527.2
396.548	523.4
396.952	523.4
397.357	531.8
397.761	520.4
398.166	525
398.57	522
398.975	516.2
399.379	528.4
399.763	564.2
400.168	522.8
400.572	528.6
400.977	523.2
401.382	543
401.787	532.8
402.192	538
402.597	536.2
403.002	520
403.386	538.8
403.791	544.6
404.197	527
404.602	526.8
405.007	527.8
405.413	525.4
405.818	522.2
406.224	526.2
406.608	529.2
407.014	516.8
407.42	539
407.825	522.2
408.231	533.4
408.637	526.6
409.043	540.8
409.449	521.2
409.834	529.2
410.24	521.4
410.646	537
411.052	534
411.458	534
411.865	533.6
412.271	542.2
412.677	533
413.062	538
413.469	518.4
413.875	549.2
414.282	542
414.689	524.2
415.095	530.6
415.502	524
415.888	530.6
416.294	519.2
416.701	561.4
417.108	520
417.515	547
417.923	522.2
418.33	542
418.715	530.4
419.123	526.2
419.53	521.6
419.937	529.6
420.345	535.6
420.752	521.4
421.16	545.4
421.546	537.2
421.953	534.2
422.361	523.2
422.769	536.6
423.177	523.6
423.585	551.8
423.992	548.8
424.379	535.6
424.787	539.4
425.195	552.2
425.603	530.6
426.011	541.6
426.419	546.4
426.806	530.6
427.214	543.2
427.623	545.4
428.031	555.2
428.44	544.2
428.848	563.6
429.235	571.2
429.644	567.2
430.053	559.8
430.461	575
430.87	608.4
431.279	591.4
431.666	601.6
432.075	619
432.484	635.8
432.893	638.2
433.302	669
433.711	709.8
434.099	703.8
434.508	715.4
434.918	731.8
435.327	765
435.737	787.8
436.125	809.6
436.534	829.4
436.944	851.8
437.353	872.2
437.763	902.4
438.173	906.8
438.561	934.4
438.971	942.2
439.381	975
439.791	988
440.201	1008
440.589	1036
440.999	1042.2
441.409	1071.6
441.819	1060
442.23	1106.2
442.619	1119
443.029	1119.6
443.439	1148.2
443.85	1160.6
444.26	1183.8
444.649	1180.8
445.06	1187
445.471	1191.8
445.881	1203.2
446.292	1233.2
446.682	1245.4
447.092	1224.4
447.503	1276.4
447.914	1238.4
448.325	1265
448.715	1256.2
449.126	1271.6
449.537	1282
449.948	1274
450.338	1267.6
450.75	1288.2
451.161	1302.6
451.572	1319.8
451.984	1299.8
452.374	1299.2
452.786	1306.6
453.197	1324.6
453.609	1305.2
453.999	1296.4
454.411	1298
454.823	1312.2
455.235	1306.8
455.647	1308.2
456.037	1333.6
456.449	1310.8
456.862	1337.2
457.274	1336.6
457.665	1323
458.077	1337.4
458.489	1366.4
458.902	1341.4
459.293	1324.8
459.705	1334
460.118	1327
460.53	1338.6
460.921	1322.8
461.334	1334
461.747	1335.2
462.16	1354.6
462.551	1354.8
462.964	1334.8
463.377	1335.4
463.79	1331.4
464.182	1354.6
464.595	1328.6
465.008	1362.4
465.421	1346.6
465.813	1339.2
466.226	1329.8
466.64	1321.6
467.053	1379.6
467.445	1335.2
467.859	1347.6
468.272	1339.8
468.686	1366.8
469.078	1354.8
469.492	1336.6
469.906	1361
470.298	1355.4
470.712	1337.4
471.126	1362.2
471.54	1324
471.933	1339.6
472.347	1332
472.761	1315.2
473.175	1333
473.568	1327.4
473.982	1314.4
474.397	1310
474.79	1305.2
475.204	1313.6
475.619	1308.8
476.033	1315.2
476.426	1293.8
476.841	1294.6
477.256	1296.6
477.649	1274
478.064	1271
478.479	1278
478.872	1276.2
479.287	1273.8
479.702	1259.6
480.118	1273
480.511	1262.8
480.927	1253.4
481.342	1250.4
481.736	1252.6
482.151	1244.8
482.566	1249
482.96	1234.2
483.376	1240.2
483.792	1221.4
484.186	1226
484.602	1223.8
485.017	1220.6
485.412	1214.8
485.827	1211
486.243	1199.6
486.638	1211.8
487.054	1198
487.47	1195
487.865	1180.4
488.281	1161.2
488.697	1170.6
489.092	1173.6
489.508	1149.8
489.925	1155.4
490.32	1128.6
490.736	1148
491.153	1147.8
491.548	1135.2
491.964	1148.8
492.381	1122.2
492.776	1140.8
493.193	1126.4
493.61	1120.6
494.006	1116.8
494.422	1106.2
494.84	1101.4
495.235	1105.4
495.652	1089.4
496.069	1084.2
496.465	1068
496.883	1069
497.3	1095
497.696	1061.2
498.113	1065.6
498.509	1034.6
498.927	1043.2
499.344	1025.2
499.741	1032
500.158	1036.6
500.576	1040.4
500.973	1026.8
501.39	1018
501.787	1000.8
502.205	1015.6
502.623	999.6
503.02	993.2
503.438	989
503.856	1003
504.253	994
504.671	983
505.068	973
505.486	969.6
505.905	976.4
506.302	966
506.72	962
507.118	946.2
507.536	956.6
507.955	945.2
508.352	943.4
508.771	928.8
509.169	936.6
509.587	924.4
510.006	917.2
510.404	902.8
510.823	899.6
511.221	910.4
511.64	911.2
512.038	931.4
512.457	902
512.877	887.8
513.275	890.6
513.694	880.2
514.092	874.6
514.512	882.4
514.91	882.8
515.33	880.6
515.749	863
516.148	861.8
516.568	855.2
516.966	851.4
517.386	844.4
517.785	845.6
518.205	848.8
518.603	830.8
519.024	826.8
519.444	826
519.843	838.8
520.263	834.8
520.662	822.6
521.082	823.8
521.481	814.8
521.902	813.2
522.301	810
522.722	806.2
523.121	811.2
523.542	808.6
523.963	805.6
524.362	786.4
524.783	791.2
525.183	781.4
525.604	788.2
526.003	778
526.425	765.4
526.824	773
527.246	774.8
527.646	765.6
528.067	764.2
528.467	754.4
528.888	763.6
529.289	749.4
529.71	760
530.11	744.2
530.532	752.8
530.932	742.2
531.354	733.4
531.755	766.8
532.176	752
532.577	732.4
532.999	737.2
533.4	727.6
533.822	742.6
534.223	723.4
534.645	717.2
535.046	712.6
535.468	716.8
535.869	725.2
536.292	711.4
536.693	745.6
537.115	709.4
537.516	711.4
537.939	710
538.34	721.2
538.742	722
539.165	710.8
539.566	704.6
539.989	706
540.391	697.8
540.814	693.8
541.216	697.8
541.639	693.6
542.041	699.6
542.464	693.4
542.866	675.6
543.268	676.4
543.691	679
544.093	675.2
544.517	691.4
544.919	678.4
545.343	698
545.745	666
546.147	675
546.571	667
546.974	659.2
547.398	664.6
547.8	667.2
548.224	656.4
548.627	646.8
549.03	652.2
549.454	649
549.857	634.8
550.281	648
550.684	643.8
551.087	660.2
551.512	654.6
551.915	656.4
552.34	644.8
552.743	633.8
553.146	645.4
553.571	636.4
553.975	652.6
554.399	632
554.803	670.6
555.207	640.2
555.632	623.2
556.036	636.8
556.461	620.4
556.865	630
557.268	618.8
557.694	624.2
558.098	628
558.502	622.4
558.927	618.2
559.332	621.8
559.736	618.8
560.162	620.4
560.566	619.4
560.992	624
561.396	626
561.801	614.8
562.227	613.4
562.631	608.6
563.036	607.8
563.462	616.4
563.867	605.4
564.272	593.8
564.698	598
565.103	603
565.508	619.8
565.935	599.4
566.34	605.6
566.745	612
567.172	600
567.577	614.8
567.982	599.6
568.409	595.4
568.815	584.6
569.22	594.6
569.626	599.2
570.053	580
570.459	586.4
570.865	596.2
571.292	595.6
571.698	584.2
572.104	572
572.531	583.2
572.937	589.8
573.343	594.4
573.75	578.4
574.177	580
574.583	581.6
574.99	579.4
575.396	592.6
575.824	583.4
576.231	580.6
576.637	570.8
577.065	603.8
577.472	571.4
577.879	572.2
578.286	577
578.714	572.8
579.121	569
579.528	571.4
579.935	573.4
580.364	574.4
580.771	556.8
581.178	566.2
581.585	568.2
582.014	567.6
582.421	559.8
582.829	560.4
583.236	569.8
583.644	561.6
584.073	557.2
584.481	570.4
584.889	562.6
585.296	562.4
585.726	562
586.134	562.4
586.542	553.6
586.95	575.6
587.358	549.8
587.787	562.2
588.196	548.8
588.604	562.2
589.012	557.8
589.421	542
589.851	544.8
590.259	549.8
590.668	543.8
591.076	583.4
591.485	548.6
591.894	551.8
592.324	562.4
592.733	555
593.142	536.6
593.551	541.2
593.96	571.8
594.369	539.8
594.8	539.2
595.209	545.2
595.618	531
596.028	535.4
596.437	536.2
596.847	542.2
597.256	540.8
597.687	550.8
598.097	544.6
598.507	532.4
598.917	543
599.327	548.8
599.736	539.8
600.146	555.2
600.556	540.8
600.988	545
601.398	536.2
601.808	548.6
602.219	532
602.629	540.6
603.039	534
603.45	552.2
603.86	535.8
604.271	550
604.703	534
605.114	530.8
605.525	538.6
605.935	542.2
606.346	548.8
606.757	542.8
607.168	536.4
607.579	531.2
607.99	539
608.402	538.2
608.813	542.8
609.224	530
609.636	526
610.047	534.2
610.48	538.2
610.892	537
611.303	540
611.715	531.8
612.127	535.8
612.539	538.8
612.95	523.8
613.362	524.8
613.774	525.4
614.186	527.8
614.599	526.4
615.011	548.2
615.423	538.6
615.835	525.2
616.248	526.4
616.66	532.8
617.073	528.8
617.485	535
617.898	533.2
618.311	537.4
618.723	533.2
619.136	554
619.549	547
619.962	558.4
620.375	531.8
620.788	528.4
621.201	528.4
621.614	532.8
622.028	532.6
622.441	522.8
622.854	541.4
623.268	521.2
623.681	527
624.095	529
624.509	539.4
624.922	539.4
625.336	521.6
625.728	530.2
626.142	539.8
626.556	547.6
626.97	531.6
627.384	532.8
627.799	521.8
628.213	545.6
628.627	530.8
629.041	530.8
629.456	530
629.87	528.6
630.285	545.2
630.699	542.6
631.093	530.4
631.507	536.4
631.922	526
632.337	549.6
632.752	525.2
633.167	525.4
633.582	528.4
633.997	526
634.412	526.2
634.806	525.6
635.221	528
635.637	544.4
636.052	520
636.468	543.6
636.883	545.6
637.299	526.2
637.715	522.4
638.109	526.4
638.525	518.6
638.941	536
639.357	529.8
639.773	534.2
640.189	515.8
640.584	522.4
641	528
641.416	512.2
641.832	519.8
642.249	516.2
642.665	526.2
643.06	523.4
643.477	523.8
643.894	511.2
644.31	517.8
644.727	519
645.123	517.8
645.54	511.6
645.957	530.8
646.374	535.8
646.77	514.4
647.187	547.4
647.604	522.8
648.021	507.8
648.439	512.2
648.835	513.8
649.252	518.4
649.67	511.8
650.088	519.2
650.484	523.6
650.902	526.4
651.32	520.8
651.738	514
652.134	522.8
652.552	534
652.971	519.8
653.389	509.6
653.786	527
654.204	528
654.622	507
655.019	522.2
655.438	520
655.857	520.6
656.275	514
656.673	506.8
657.091	534.4
657.51	514.6
657.908	518.2
658.327	530.2
658.746	511.4
659.144	510.2
659.563	527
659.982	514.2
660.38	510.4
660.8	517.8
661.219	526
661.617	518
662.037	511.4
662.457	522.2
662.855	504.4
663.275	543.4
663.695	517.6
664.094	513
664.514	512.6
664.934	507.8
665.333	520.6
665.753	505.4
666.152	507.2
666.572	502.6
666.993	524
667.392	509
667.812	515.8
668.212	506.2
668.632	514
669.053	503
669.453	521.4
669.874	511.6
670.273	508.8
670.694	506.2
671.116	520
671.515	524
671.937	507.2
672.337	505.8
672.758	502.6
673.158	519.2
673.58	500.6
673.98	510.4
674.402	517.4
674.824	506.4
675.224	512.6
675.646	501.6
676.047	508.2
676.469	516.8
676.869	515.2
677.292	508.6
677.693	507
678.115	507.2
678.516	518.2
678.939	508.4
679.34	511.6
679.762	512.8
680.164	515.2
680.586	502.8
680.988	512.2
681.411	536.2
681.812	513.2
682.236	500
682.637	509.6
683.061	496.8
683.462	510.6
683.864	508.6
684.288	520.2
684.69	501.8
685.114	520.8
685.516	518
685.94	501.8
686.342	517.8
686.766	504.8
687.168	515.2
687.571	518
687.995	503.8
688.398	497.8
688.822	502.6
689.225	521.6
689.628	527.4
690.052	505.6
690.456	514
690.88	507.4
691.284	501
691.687	511
692.112	493.4
692.515	502.8
692.919	502.4
693.344	504.6
693.747	502
694.173	510.2
694.577	518.6
694.98	506.8
695.406	493.6
695.81	511.2
696.214	519.4
696.64	510.2
697.044	507.6
697.448	514.8
697.874	510.2
698.279	509.2
698.684	496.4
699.11	495.2
699.514	504.8
699.919	511.8
700.324	500.4
700.75	506
701.156	504.4
701.561	511.4
701.987	507.6
702.393	513.8
702.798	515.6
703.203	501.2
703.63	498.8
704.036	508
704.442	505.4
704.847	500.8
705.274	503
705.68	515.2
706.086	513.6
706.492	495.4
706.92	499.8
707.326	515.4
707.732	508.2
708.139	495
708.545	496
708.973	498.4
709.38	511.4
709.786	498.4
710.193	516
710.6	506.2
711.028	499.4
711.435	503
711.842	497.8
712.249	499.6
712.656	492.8
713.064	503.4
713.492	504.4
713.9	503.4
714.307	507.4
714.715	503.4
715.123	511.8
715.53	512.6
715.938	511.2
716.367	503.4
716.775	508.2
717.184	497.4
717.592	507.4
718	515.6
718.408	522.8
718.816	536.6
719.225	501.4
719.633	500.2
720.042	503.4
720.472	504.2
720.881	521.6
721.29	506.4
721.699	486.8
722.108	513.8
722.517	508.2
722.926	500.4
723.335	505
723.744	509
724.154	510.2
724.563	507.6
724.973	503.8
725.382	508.2
725.792	505.8
726.202	497.2
726.612	514.6
727.022	498
727.432	501.4
779.813	502.6
780.223	541.2
780.634	505.6
781.044	496.2
781.454	498.6
781.865	514.2
782.276	493.2
782.686	507.4
783.097	509.6
783.508	507
783.919	508.8
784.33	514.2
784.741	515.6
785.152	498.8
785.563	496
785.974	495
786.386	507.2
786.776	503.8
787.188	502.8
787.599	496.8
788.011	507.2
788.423	505
788.835	494.2
789.247	496.6
789.659	500
790.071	506.2
790.483	538.8
790.874	500
791.286	510.2
791.699	495.4
792.111	499.8
792.524	503.2
792.937	505.8
793.349	495
793.741	495.4
794.154	497.8
794.567	514.4
794.98	504.8
795.393	497.4
795.785	508.6
796.198	501.4
796.612	501.2
797.026	493.8
797.439	486.6
797.831	500.8
798.245	496.2
798.659	503.8
799.073	501.2
799.487	493
799.88	498.8
800.294	492
800.708	507
801.123	500.2
801.516	512.6
801.93	489.8
802.345	487.4
802.76	505.4
803.153	505
803.568	512.6
803.983	507
804.377	505.8
804.792	492.4
805.207	488.8
805.601	512
806.016	530.2
806.432	506
806.826	534.6
807.242	509.6
807.658	502
808.052	504.6
808.468	504.4
808.884	500
809.279	503.8
809.695	511.6
810.111	505.6
810.506	507
810.922	515.4
811.339	494.2
811.734	502.4
812.151	501
812.546	500.6
812.963	497.2
813.38	505.6
813.776	507.2
814.193	517.6
814.589	497.6
815.006	502.4
815.402	496.8
815.82	494.2
816.237	499.6
816.633	504
817.051	495.6
817.448	507
817.866	491.8
818.262	517.6
818.68	496.4
819.077	492.4
819.495	498
819.892	533.6
820.311	490.4
820.708	496.8
821.127	496.4
821.524	511
821.943	498
822.34	513.2
822.759	489.2
823.157	499.8
823.576	514
823.974	507
824.393	557.6
824.791	499.2
825.189	494
825.609	506.4
826.007	500.6
826.427	490
826.826	506.2
827.246	500
827.644	482.2
828.043	510.6
828.463	493
828.862	506
829.261	500.4
829.682	498.2
830.081	501.6
830.502	501
830.901	505.2
831.301	495.4
831.722	492
832.121	505.6
832.521	496.2
832.943	497
833.342	503
833.742	500.2
834.164	495
834.564	496.2
834.965	501.2
835.386	496.2
835.787	499.4
836.188	495.2
836.588	505
837.01	502.2
837.411	489.6
837.812	504.8
838.213	500.2
838.636	496.8
839.037	547.2
839.438	501.4
839.84	502.2
840.263	502.4
840.664	497
841.066	496.2
841.468	498.4
841.891	496
842.293	503.4
842.695	512.8
843.098	507
843.5	496.2
843.902	499.6
844.326	496.6
844.729	501
845.131	509
845.534	501.6
845.937	508.8
846.34	506.4
846.764	497
847.167	507.4
847.571	492.6
847.974	498.2
848.377	501.6
848.781	529.2
849.184	501
849.588	493.2
849.992	491.2
850.396	502.2
850.821	517
851.225	497
851.63	492.6
852.034	509.4
852.438	499.6
852.843	520.2
853.247	495
853.652	488
854.057	511
854.462	496.8
854.867	498.4
855.272	516.2
855.677	498.8
856.082	490.2
856.487	484.2
856.893	503.2
857.298	495.8
857.704	484.4
858.11	504.6
858.516	505.4
858.922	497.6
859.328	499.2
859.734	496
860.14	505.4
860.525	497.8
860.931	491.8
861.338	493.8
861.745	505.6
862.151	502.2
862.558	492.4
862.965	493
863.372	492.4
863.779	502.2
864.186	512.6
864.572	498
864.98	514.4
865.387	519.2
865.795	488
866.203	499
866.61	487.6
867.018	509.8
867.405	504.2
867.813	500.8
868.221	497.6
868.63	496
869.038	516
869.425	528.2
869.834	495.6
870.243	494.2
870.652	490.6
871.039	500.8
871.448	493.6
871.857	498.8
872.266	500.8
872.654	495.8
873.064	494
873.473	499.8
873.883	497.8
874.271	495.2
874.681	508.2
875.091	490.4
875.48	507
875.89	513.2
876.3	497.2
876.689	493.8
877.1	500
877.51	496
877.9	516.6
878.31	502.2
878.721	517.6
879.111	501
879.522	502.4
879.933	499.2
880.323	487.8
880.734	485.2
881.125	496
881.536	498
881.948	491.8
882.338	493
882.75	510.8
883.141	499.4
883.553	502.4
883.944	517.8
884.356	507.2
884.769	499.6
885.16	492.2
885.573	497
885.964	496.8
886.377	497.6
886.768	488.6
887.181	492.8
887.573	488.8
887.987	506
888.378	507
888.792	494.8
889.184	535.4
889.598	489.6
889.99	496.2
890.383	489.2
890.797	489.4
891.19	501.2
891.604	490.6
891.997	488.4
892.411	482.6
892.805	485.4
893.198	493.4
893.613	484.8
894.006	495
894.421	494
894.815	494
895.209	488.2
895.624	525.6
896.018	505.2
896.412	486
896.828	491.2
897.222	499.4
897.617	494.2
898.033	512.8
898.427	501.8
898.822	498.8
899.239	489.2
899.634	495.4
900.029	513.6
900.424	490.4
900.841	488
901.236	506
901.632	499.2
902.027	545
902.445	504
902.841	491.6
903.237	497.4
903.633	504.6
904.05	502
904.447	502.2
904.843	506.4
905.24	497.4
905.636	499
906.033	487.4
906.451	504.4
906.848	492.2
907.246	490.4
907.643	499
908.04	500.4
908.438	507.6
908.835	499
909.254	495.4
909.652	498.8
910.05	493.4
910.448	491.8
910.846	491.2
911.244	485.4
911.643	490.4
912.041	494
912.44	505
912.839	489.4
913.237	498.6
913.636	486.6
914.035	501.6
914.434	495.4
914.834	509.6
915.233	499
915.633	492.4
916.032	488.8
916.432	489.8
916.832	506.4
917.232	495.2
917.632	487.6
918.032	505.2
918.432	499.8
918.833	497.2
919.233	492
919.634	484
920.035	504.4
920.436	486.8
920.837	493.8
921.238	487.8
921.639	492
922.019	491.8
922.42	503.6
922.822	509.6
923.224	492.8
923.625	490.2
924.027	499
924.429	512.8
924.81	503.6
925.212	498.6
925.615	495.8
926.017	498.2
926.42	498.4
926.801	489
927.204	498.2
927.607	498.6
928.01	501
928.413	500
928.795	483
929.199	487.2
929.602	506.6
930.006	491.6
930.388	482.6
930.792	492.8
931.196	486.2
931.579	522
931.983	488.6
932.388	522
932.771	484
933.176	488.8
933.58	494.2
933.964	495.6
934.369	479.8
934.774	488.4
935.158	494.6
935.563	490.6
935.947	496.8
936.353	492.6
936.759	490
937.143	503.6
937.549	496.4
937.934	508
938.34	508.6
938.746	484.8
939.131	487.4
939.538	491.8
939.923	497.4
940.33	492
940.716	499.2
941.123	501.8
941.508	502.2
941.916	504.8
942.302	503.6
942.709	481.4
943.096	488.6
943.503	491.8
943.89	493.2
944.298	492.2
944.685	519.2
945.072	489.4
945.48	503.4
945.867	485.4
946.276	493.8
946.663	515.6
947.051	512.2
947.46	496
947.848	492.8
948.257	494
948.645	492.2
949.033	488.8
949.443	483
949.831	524.8
950.22	484.6
950.63	498
951.018	511.6
951.407	498
951.796	483.6
952.207	496.8
952.596	502.2
952.985	489.6
953.375	523.4
953.786	488
954.176	484.8
954.566	498.6
954.956	487.2
955.367	484.6
955.758	506
956.148	486.2
956.539	505
956.929	488.4
957.341	484.8
957.732	493.6
958.123	503.6
958.515	480.4
958.906	505
959.297	487.8
959.689	491.4
960.102	498.4
960.494	498.4
960.886	487.6
961.278	488.4
961.67	507.6
962.062	525.6
962.455	484
962.847	481.8
963.24	494.2
963.633	488.4
964.026	480.4
964.419	491
964.812	504
965.206	492.6
965.599	497.8
965.993	487.2
966.386	495
966.78	501.4
967.174	502
967.569	489
967.963	485.2
968.357	492.4
968.752	491.2
969.146	493.2
969.541	490.6
969.936	489.4
970.331	492.4
970.705	490.4
971.1	494.2
971.496	496.4
971.892	483.4
972.287	495
972.683	497.4
973.079	496
973.454	506.8
973.85	493.6
974.247	500.2
974.643	520.8
975.04	494.4
975.415	497.6
975.812	483.6
976.209	490
976.607	482.6
976.982	503.4
977.38	504.2
977.778	499.8
978.175	492
978.552	499.6
978.95	496.4
979.348	496.6
979.725	536.6
980.123	487.2
980.522	494.6
980.899	489.4
981.298	489.8
981.697	486.2
982.075	485.8
982.474	491
982.852	490.4
983.251	488.2
983.651	485.8
984.029	494.2
984.429	490.4
984.808	482.6
985.208	492.4
985.609	487
985.987	477.8
986.388	480.8
986.768	503.4
987.168	481
987.548	494.6
987.949	498
988.329	492.8
988.731	475
989.111	501.4
989.491	492.4
989.893	494.8
990.273	493.8
990.676	486.8
991.057	487.4
991.459	493.6
991.84	492.4
992.221	481
992.624	502.2
993.006	490.4
993.388	497.6
993.791	500.8
994.173	494.6
994.576	521
994.959	484
995.341	489.4
995.724	494.4
996.128	498.4
996.511	500.8
996.894	493
997.298	489.4
997.681	499.4
998.065	491
998.448	492.8
998.854	499.6
999.237	487
999.621	492.4
1000.01	503.6
1000.39	490
1000.8	492.6
1001.18	496.4
1001.56	499.8
1001.95	494.8
1002.33	494.4
1002.72	485.2
1003.13	481.8
1003.51	488.8
1003.9	485.8
1004.28	507.6
1004.67	490
1005.06	490.6
1005.44	512.4
1005.83	483.4
1006.21	489
1006.6	488
1006.99	497.2
1007.37	491.4
1007.76	491.6
1060.12	482.4
1060.51	489.8
1060.89	495.8
1061.28	505.2
1061.67	501.6
1062.06	497.4
1062.45	495
1062.83	486.4
1063.22	504.8
1063.61	526.8
1064	493.2
1064.39	494.8
1064.78	485.8
1065.14	498.6
1065.53	496.2
1065.92	493
1066.31	484.2
1066.7	497.4
1067.09	493.8
1067.46	502.8
1067.85	487.8
1068.24	486.6
1068.63	492.4
1069.02	492.4
1069.39	501.8
1069.78	497
1070.17	488.4
1070.57	485.4
1070.93	489.8
1071.33	490
1071.72	489.8
1072.11	490.8
1072.48	489.2
1072.87	494.8
1073.26	491.6
1073.64	488.6
1074.03	482.8
1074.4	489.8
1074.79	477
1075.19	492.2
1075.56	489.8
1075.95	488.6
1076.34	489
1076.72	490.4
1077.11	495.2
1077.48	500
1077.88	492.4
1078.25	492.4
1078.64	496.8
1079.02	492.2
1079.41	493.4
1079.78	484.8
1080.18	492.6
1080.55	547.4
1080.95	487
1081.32	487.4
1081.72	493.2
1082.09	485
1082.49	484.8
1082.86	488.6
1083.24	483
1083.63	480.4
1084.01	495
1084.38	495.4
1084.78	486.4
1085.16	497.2
1085.55	501
1085.93	501.4
1086.31	488.2
1086.7	516.8
1087.08	499
1087.46	486.2
1087.83	478
1088.23	492
1088.61	489.2
1088.99	485.2
1089.36	494.4
1089.76	484
1090.14	489
1090.52	487.2
1090.9	482.8
1091.27	498.4
1091.67	504.4
1092.05	491
1092.43	482.4
1092.81	491.6
1093.19	484.8
1093.57	484.4
1093.95	491.6
1094.35	500.4
1094.73	493.4
1095.11	485.2
1095.49	485.6
1095.87	492.6
1096.25	499.2
1096.63	493
1097.01	478.8
1097.39	486.4
1097.77	489.4
1098.15	486
1098.53	490
1098.91	490.2
1099.29	489
1099.68	501.2
1100.06	491.8
1100.44	488.6
1100.82	485.2
1101.18	497.4
1101.56	485
1101.95	488.2
1102.33	488.4
1102.71	486
1103.1	479
1103.48	482.8
1103.86	485.6
1104.22	498.4
1104.61	484.2
1104.99	481.4
1105.38	488.2
1105.76	489.8
1106.12	486.2
1106.51	519.6
1106.89	493.4
1107.26	489.4
1107.64	493.8
1108.03	490.8
1108.41	487.2
1108.78	498.8
1109.16	490.8
1109.55	499.8
1109.91	476.6
1110.3	481.6
1110.69	497.8
1111.05	484.8
1111.44	490.4
1111.8	482.8
1112.19	492.4
1112.58	488.6
1112.94	481.8
1113.33	488.6
1113.7	480.8
1114.09	484.4
1114.45	479
1114.84	489.6
1115.21	495
1115.6	485.8
1115.96	495.2
1116.35	490.6
1116.72	492.8
1117.11	493
1117.48	490.4
1117.85	491.2
1118.24	499.2
1118.6	494
1118.99	482
1119.36	500.8
1119.73	489.8
1120.12	484.8
1120.49	475.6
1120.86	496.2
1121.25	483.6
1121.62	485.4
1121.99	485.8
1122.38	498.6
1122.76	484.8
1123.13	483.2
1123.5	482.2
1123.89	492.4
1124.26	479.6
1124.63	483.6
1125	488.8
1125.4	475.2
1125.77	479.8
1126.14	478.2
1126.51	483.4
1126.88	484.6
1127.26	476.4
1127.63	477.2
1128.02	493.2
1128.4	476.8
1128.77	484.4
1129.14	488.2
1129.52	490.6
1129.89	487
1130.26	478.8
1130.64	482.8
1131.01	485.6
