#lambda/nm	C1
208.295	460.4
208.67	437
209.045	387.6
209.419	399.2
209.794	533.8
210.169	528
210.544	625.4
210.919	539.8
211.295	528.8
211.67	537.2
212.045	531.6
212.421	535.2
212.796	560
213.172	532.6
213.547	530.2
213.923	532.8
214.299	525
214.675	541
215.051	534.2
215.427	546
215.803	546.8
216.179	542.6
216.555	536.4
216.932	543.6
217.308	539.2
217.684	536.8
218.061	540.6
218.438	543
218.814	531.4
219.191	541.4
219.568	535.4
219.945	535.2
220.322	546
220.699	548
221.076	542.4
221.453	534.8
221.83	522.6
222.208	537.4
222.585	543.2
222.962	533.8
223.34	544.4
223.717	531.2
224.095	532.6
224.473	531
224.851	529
225.229	528.8
225.607	547.4
225.985	528.8
226.363	531
226.741	536.8
227.119	530
227.497	540.8
227.876	525
228.254	541
228.633	544
229.011	545.2
229.39	542.2
229.769	538.8
230.148	538
230.527	553.2
230.905	539.8
231.284	537
231.664	528.2
232.043	545
232.422	543.8
232.801	535.4
233.181	543
233.56	533.2
233.94	534.8
234.319	525.4
234.699	527
235.079	575.6
235.458	575
235.838	540.6
236.218	531.2
236.598	532.2
236.978	536
237.358	527.4
237.738	541.4
238.119	540.6
238.499	530.8
238.88	549.6
239.26	542.8
239.641	527.6
240.021	535.6
240.402	539.8
240.783	533.2
241.163	534.8
241.544	533.6
241.925	533
242.306	552
242.687	530.8
243.069	537.6
243.45	543.2
243.831	531
244.212	532.2
244.594	566.4
244.975	544.6
245.357	539.4
245.739	543.6
246.12	534.2
246.502	547.4
246.884	535
247.266	535.8
247.648	539.8
248.03	551.2
248.412	531.8
248.794	531
249.176	535
249.559	545.6
249.941	536.6
250.323	527.8
250.706	530.2
251.089	531.2
251.471	536
251.854	539.6
252.237	535.4
252.62	552.2
253.002	534
253.385	534.4
253.769	546.4
254.152	535
254.535	539.8
254.918	531.4
255.301	534.8
255.685	530.6
256.068	529.4
256.452	553.2
256.835	543.2
257.219	544.6
257.603	547
257.986	531.6
258.37	537.8
258.754	524
259.138	542.6
259.522	549.6
259.906	534.6
260.29	538.4
260.675	531.2
261.059	532.6
261.443	529
261.828	546.4
262.212	536.4
262.597	529
262.981	533.8
263.366	537
263.751	533.8
264.136	534
264.521	539.4
264.906	531.6
265.291	542.2
265.676	533.8
266.061	541.2
266.446	545.4
266.831	538.2
267.217	550.6
267.602	535.2
267.987	533
268.373	526.8
268.759	540.2
269.144	541.8
269.53	537.2
269.916	533.6
270.302	532.6
270.688	533.8
271.074	544
271.46	539.6
271.846	563.6
272.232	530.2
272.618	528.4
273.004	536.6
273.391	544.8
273.777	540.6
274.164	539.8
274.55	544.2
274.937	537.6
275.324	535.8
275.71	536
276.097	535.6
276.484	527.4
276.871	532
277.258	535
277.645	523
278.032	529.2
278.419	527
278.807	529.4
279.194	528.8
279.581	529.6
279.969	540.2
280.356	526.8
280.744	534.2
281.131	551.2
281.519	547.4
281.907	532.6
282.295	530.6
282.682	544.6
283.07	536.6
283.458	532.2
283.846	543.8
284.235	534.8
284.623	537
285.011	523.6
285.399	533.2
285.788	533
286.176	526.6
286.565	540
286.953	529.8
287.342	531.2
287.731	526.2
288.119	525.2
288.508	533.8
288.897	537.4
289.286	523.4
289.675	533.4
290.064	536.8
290.453	533.4
290.821	530.8
291.21	543.6
291.599	536.6
291.989	535.2
292.378	535.8
292.768	556.4
293.157	542.8
293.547	542.6
293.936	544.2
294.326	538.6
294.716	539
295.106	527.8
295.496	541
295.886	543.4
296.276	542.4
296.666	542.4
297.056	537.6
297.446	533.6
297.836	546.2
298.227	539.6
298.617	537.2
299.008	547.4
299.398	540.8
299.789	535.6
300.179	535.4
300.57	551.2
300.961	533
301.352	537.6
301.742	544.6
302.133	540
302.524	537.4
302.915	535.4
303.307	523.6
303.698	545.4
304.089	539.6
304.48	532
304.872	536.2
305.263	530.4
305.655	526.6
306.046	540.8
306.438	535.2
306.829	531.8
307.221	553.6
307.613	541.2
308.005	540.8
308.397	538.4
308.789	551.6
309.181	551.2
309.573	553.2
309.965	537.8
310.357	533.2
310.749	545
311.142	534.6
311.534	530.4
311.926	545.8
312.319	535.2
312.711	532.4
313.104	542
313.497	534
313.889	569
314.282	538.8
314.675	552.4
315.068	536.8
315.461	547.2
315.854	561.2
316.247	536.6
316.64	538.6
317.033	537.6
317.405	545.8
317.798	537.6
318.192	537
318.585	533.6
318.979	542.8
319.372	527.2
319.766	545
320.16	539.4
320.553	546.4
320.947	550.8
321.341	534.2
321.735	526.2
322.129	522.8
322.523	555.6
322.917	529
323.311	553.2
323.705	541.4
324.099	540.4
324.494	552
324.888	540.2
325.282	534
325.677	547.6
326.071	540.4
326.466	543.2
326.861	539.8
327.255	548.8
327.65	546
328.045	559
328.44	535.6
328.835	537.2
329.23	534.6
329.625	559.6
330.02	530.4
330.415	550.2
330.81	535.2
331.206	540.2
331.601	531
331.996	552.4
332.37	556.8
332.766	529
333.161	553.2
333.557	531.4
333.953	536.4
334.348	764.6
334.744	537.8
335.14	534.4
335.536	535.6
335.932	546.2
336.328	536.8
336.724	542.8
337.12	542
337.516	544.2
337.913	532.6
338.309	551.4
338.705	545.4
339.102	541.4
339.498	528.4
339.895	554.2
340.291	534.8
340.688	543.6
341.085	543
341.481	528.4
341.878	540.4
342.275	546.8
342.672	526.4
343.069	540.2
343.466	528
343.842	536.6
344.239	526
344.636	536.8
345.033	532.6
345.431	530.8
345.828	534.2
346.225	528.2
346.623	567.4
347.02	540
347.418	538.2
347.816	552
348.213	524.4
348.611	535.2
349.009	530.6
349.407	546
349.805	525.6
350.203	524.6
350.601	540
350.999	530
351.397	584.6
351.795	535.8
352.193	544.4
352.57	543.8
352.969	541.2
353.367	527.2
353.766	534.2
354.164	537.2
354.563	537
354.961	531.8
355.36	524.2
355.759	530
356.158	530.4
356.557	531.4
356.956	530
357.355	526
357.754	535.4
358.153	543
358.552	556.4
358.951	537.2
359.35	534.6
359.75	528.6
360.149	528.2
360.527	518
360.926	523
361.326	532.4
361.726	528.8
362.125	528.8
362.525	538.4
362.925	527.4
363.325	533.2
363.724	530
364.124	527.4
364.524	523.4
364.924	526
365.324	530.8
365.725	519
366.125	531.2
366.525	535.4
366.904	522.8
367.304	527
367.705	537.8
368.105	544.4
368.506	522.8
368.906	529.6
369.307	531.6
369.708	525
370.108	518.6
370.509	538
370.91	519.6
371.311	535.2
371.712	523.4
372.113	532.4
372.514	519.4
372.894	532.8
373.295	522.8
373.696	540.4
374.097	539.8
374.499	553
374.9	534.8
375.301	524
375.703	535.4
376.105	525.4
376.506	530.8
376.908	530.4
377.309	522.4
377.711	524.2
378.113	513
378.493	516
378.895	521
379.297	538.2
379.699	519
380.102	534.6
380.504	527.8
380.906	528.8
381.308	549.4
381.71	531.2
382.113	543.8
382.515	525.4
382.918	537.6
383.299	519
383.701	528.2
384.104	530.4
384.507	510.2
384.909	527.2
385.312	518.2
385.715	522.2
386.118	528
386.521	527.2
386.924	540.8
387.327	521.4
387.709	520.4
388.112	511.6
388.515	528.4
388.918	529.8
389.322	533.4
389.725	525.2
390.129	553.6
390.532	534.6
390.936	525.8
391.339	522
391.743	535.6
392.125	519.2
392.529	533.8
392.933	535.4
393.337	526.8
393.74	522
394.144	525
394.548	526.4
394.953	529.2
395.357	533.2
395.761	525.4
396.144	527
396.548	527
396.952	530.2
397.357	531
397.761	519.4
398.166	526.6
398.57	522.8
398.975	521.6
399.379	533.6
399.763	564
400.168	522.2
400.572	524
400.977	526
401.382	536.2
401.787	539.2
402.192	536.2
402.597	544
403.002	516.6
403.386	536.2
403.791	541
404.197	514.8
404.602	526.4
405.007	522.2
405.413	521.8
405.818	522.4
406.224	524.2
406.608	522
407.014	520
407.42	536.6
407.825	518
408.231	533.6
408.637	517.2
409.043	539
409.449	519.6
409.834	523.2
410.24	524.8
410.646	539.2
411.052	538
411.458	528.4
411.865	537.4
412.271	534.8
412.677	530.8
413.062	532.6
413.469	523
413.875	548.4
414.282	535.4
414.689	540.2
415.095	533.8
415.502	518.6
415.888	523.6
416.294	524.2
416.701	565
417.108	530.2
417.515	542.4
417.923	526.4
418.33	545.6
418.715	542.6
419.123	532.8
419.53	522.2
419.937	534.8
420.345	543.2
420.752	519.4
421.16	538.6
421.546	536.4
421.953	530.6
422.361	517.4
422.769	535.8
423.177	516.6
423.585	549.2
423.992	542.2
424.379	533.6
424.787	537.6
425.195	543.2
425.603	534.2
426.011	541.4
426.419	544.6
426.806	536.2
427.214	533
427.623	546.4
428.031	546.4
428.44	546.6
428.848	544
429.235	551.4
429.644	550.6
430.053	560.6
430.461	570.6
430.87	590
431.279	585.4
431.666	577.2
432.075	585.4
432.484	608.4
432.893	612.4
433.302	631.2
433.711	670.8
434.099	650.6
434.508	666.4
434.918	676.4
435.327	705.2
435.737	715.6
436.125	735.4
436.534	743.4
436.944	761.2
437.353	787.4
437.763	805.8
438.173	803.8
438.561	846.2
438.971	831.4
439.381	849
439.791	874.8
440.201	868
440.589	896.4
440.999	908.6
441.409	923
441.819	915.4
442.23	951.4
442.619	954.6
443.029	962.4
443.439	981.2
443.85	994
444.26	1006.8
444.649	990.2
445.06	991.2
445.471	1009.4
445.881	1025.4
446.292	1039.8
446.682	1045
447.092	1035.8
447.503	1093.8
447.914	1048.4
448.325	1062
448.715	1080.6
449.126	1065
449.537	1071
449.948	1063
450.338	1076
450.75	1087.4
451.161	1090.8
451.572	1092
451.984	1085
452.374	1088.2
452.786	1079.2
453.197	1107
453.609	1108.4
453.999	1095.8
454.411	1096
454.823	1115.6
455.235	1104.2
455.647	1104.4
456.037	1117.2
456.449	1095.8
456.862	1116.2
457.274	1111.2
457.665	1110.6
458.077	1123
458.489	1138.6
458.902	1110.6
459.293	1119
459.705	1112.4
460.118	1109.8
460.53	1113.6
460.921	1119.2
461.334	1120.8
461.747	1114.2
462.16	1129.2
462.551	1130.4
462.964	1119.2
463.377	1119.2
463.79	1124
464.182	1124.6
464.595	1116.6
465.008	1112.6
465.421	1116.6
465.813	1103.8
466.226	1122
466.64	1110.8
467.053	1144.6
467.445	1116.6
467.859	1134
468.272	1127.6
468.686	1142.8
469.078	1112
469.492	1120.4
469.906	1141.2
470.298	1122.4
470.712	1117.4
471.126	1147.6
471.54	1108.2
471.933	1097
472.347	1112
472.761	1101.6
473.175	1111.2
473.568	1102.4
473.982	1094
474.397	1099.2
474.79	1080.8
475.204	1093.6
475.619	1083.4
476.033	1077.8
476.426	1083.2
476.841	1083.8
477.256	1088.4
477.649	1071.6
478.064	1065.8
478.479	1066.4
478.872	1063.8
479.287	1044.4
479.702	1058.2
480.118	1062.4
480.511	1062
480.927	1057.6
481.342	1047.4
481.736	1058.6
482.151	1042.6
482.566	1040.2
482.96	1044.6
483.376	1050
483.792	1033.4
484.186	1028
484.602	1046.2
485.017	1023.8
485.412	1029.4
485.827	1030.8
486.243	1019.8
486.638	1027
487.054	1014.2
487.47	1018.6
487.865	1000.8
488.281	990.2
488.697	998.8
489.092	993.6
489.508	986.8
489.925	985.4
490.32	971
490.736	994
491.153	972
491.548	979
491.964	971.6
492.381	960.4
492.776	978.6
493.193	965.4
493.61	973.4
494.006	953.4
494.422	952
494.84	948.2
495.235	957.8
495.652	935.4
496.069	945.8
496.465	926
496.883	932
497.3	937.6
497.696	920.2
498.113	912.2
498.509	898.8
498.927	903.4
499.344	894.4
499.741	895.8
500.158	897.4
500.576	906.2
500.973	886.4
501.39	872.6
501.787	880.8
502.205	873.2
502.623	861.2
503.02	861.4
503.438	864.2
503.856	869.4
504.253	854
504.671	856.2
505.068	853.8
505.486	846.4
505.905	862.2
506.302	839.2
506.72	846.6
507.118	833.6
507.536	838.6
507.955	820.6
508.352	832.2
508.771	845.6
509.169	832.6
509.587	817.4
510.006	814.4
510.404	811.2
510.823	803.4
511.221	811.4
511.64	807.4
512.038	812.4
512.457	794.8
512.877	794
513.275	798.6
513.694	787
514.092	782.8
514.512	790.2
514.91	784.4
515.33	778.6
515.749	771.4
516.148	778.8
516.568	776.2
516.966	766
517.386	765.2
517.785	771.8
518.205	749.8
518.603	745.2
519.024	748.2
519.444	749.4
519.843	755
520.263	749
520.662	744
521.082	741
521.481	744.8
521.902	752.6
522.301	729.4
522.722	731.8
523.121	725
523.542	725
523.963	719.2
524.362	726.2
524.783	723
525.183	711.8
525.604	712.2
526.003	702
526.425	708.2
526.824	716.6
527.246	710.2
527.646	719.8
528.067	705.2
528.467	692.2
528.888	702.6
529.289	693.2
529.71	690.4
530.11	684.6
530.532	687.4
530.932	682.4
531.354	673.6
531.755	702
532.176	685
532.577	677.4
532.999	671
533.4	669.6
533.822	675.2
534.223	674.8
534.645	666.8
535.046	668.4
535.468	664.6
535.869	670.6
536.292	664.4
536.693	701.6
537.115	663.4
537.516	657.8
537.939	651.4
538.34	672
538.742	673.2
539.165	658.4
539.566	655.8
539.989	649.6
540.391	643.8
540.814	652.6
541.216	653.2
541.639	646.2
542.041	653.4
542.464	634.6
542.866	637
543.268	639.2
543.691	644.2
544.093	642.8
544.517	657.6
544.919	634.4
545.343	655.2
545.745	620.8
546.147	635.6
546.571	622.4
546.974	621.4
547.398	623
547.8	633
548.224	623.2
548.627	615.8
549.03	624.4
549.454	613.8
549.857	606.2
550.281	605.2
550.684	609.2
551.087	613.2
551.512	625.2
551.915	615.2
552.34	616.8
552.743	612.8
553.146	606.8
553.571	602.6
553.975	624.4
554.399	598
554.803	649.8
555.207	597
555.632	597.6
556.036	605.4
556.461	601.4
556.865	604
557.268	594.2
557.694	594.8
558.098	597.2
558.502	593
558.927	587.2
559.332	593.8
559.736	586.8
560.162	591.6
560.566	582
560.992	586.6
561.396	582.6
561.801	587.2
562.227	575
562.631	583.6
563.036	583.2
563.462	579.8
563.867	580.8
564.272	568.4
564.698	587.6
565.103	575.2
565.508	588.8
565.935	586.2
566.34	577.6
566.745	586
567.172	574.4
567.577	589.4
567.982	586.4
568.409	575
568.815	563.6
569.22	576.4
569.626	574
570.053	558.6
570.459	560.8
570.865	576.4
571.292	573.4
571.698	563.2
572.104	553.8
572.531	561.6
572.937	573.6
573.343	564
573.75	559.2
574.177	564
574.583	563.6
574.99	568
575.396	560.6
575.824	557.4
576.231	561
576.637	551.8
577.065	575.8
577.472	548.6
577.879	554.8
578.286	574.6
578.714	550
579.121	557.2
579.528	553.6
579.935	563.6
580.364	567
580.771	547.2
581.178	549.8
581.585	553.8
582.014	557.4
582.421	548.4
582.829	544.2
583.236	560
583.644	543.2
584.073	547.4
584.481	547.4
584.889	540.4
585.296	564.4
585.726	550.2
586.134	546.4
586.542	536.6
586.95	560.8
587.358	538
587.787	549.6
588.196	539.6
588.604	545.4
589.012	546
589.421	537.2
589.851	533.4
590.259	545
590.668	545
591.076	569.2
591.485	540.2
591.894	537.4
592.324	551.4
592.733	544.2
593.142	524
593.551	536.4
593.96	569.6
594.369	524
594.8	530
595.209	535.2
595.618	517
596.028	527
596.437	526.2
596.847	538.4
597.256	538.6
597.687	530.2
598.097	527.2
598.507	521.2
598.917	530.6
599.327	540.6
599.736	539.2
600.146	534
600.556	535
600.988	541.2
601.398	525.2
601.808	544
602.219	516
602.629	533.4
603.039	539
603.45	553.2
603.86	529
604.271	544.4
604.703	536.4
605.114	530.2
605.525	535.4
605.935	534.2
606.346	548.6
606.757	541.2
607.168	539
607.579	528.4
607.99	550.2
608.402	535.8
608.813	540.8
609.224	522.8
609.636	524.4
610.047	528.2
610.48	533.6
610.892	532.8
611.303	527.8
611.715	526.6
612.127	528
612.539	531.6
612.95	534.6
613.362	527
613.774	528.8
614.186	536.6
614.599	532.2
615.011	533.4
615.423	539.6
615.835	532
616.248	529.2
616.66	537.2
617.073	527.4
617.485	532.2
617.898	538.8
618.311	536
618.723	531.4
619.136	554.4
619.549	537.4
619.962	548.8
620.375	534
620.788	545.2
621.201	534
621.614	537.6
622.028	532.2
622.441	534.4
622.854	549.2
623.268	529.2
623.681	538.8
624.095	538.8
624.509	538.6
624.922	540.2
625.336	526.6
625.728	538
626.142	540.6
626.556	540.2
626.97	535
627.384	531
627.799	542.4
628.213	543.2
628.627	535.8
629.041	532.6
629.456	526
629.87	523.8
630.285	539
630.699	548.8
631.093	527
631.507	532.8
631.922	535
632.337	544.4
632.752	522.4
633.167	531.6
633.582	526.6
633.997	526.6
634.412	524.4
634.806	532.4
635.221	522.6
635.637	537.8
636.052	523.6
636.468	530.4
636.883	541.6
637.299	526.2
637.715	514.4
638.109	520.2
638.525	513
638.941	533
639.357	526.8
639.773	539
640.189	524.6
640.584	521
641	526.4
641.416	518.6
641.832	512.8
642.249	522.6
642.665	523.8
643.06	528.8
643.477	532
643.894	505
644.31	526
644.727	527.6
645.123	518.6
645.54	517.2
645.957	522.2
646.374	524
646.77	519.8
647.187	543.2
647.604	519
648.021	509.2
648.439	516
648.835	523
649.252	518.2
649.67	514
650.088	525.4
650.484	517.4
650.902	517
651.32	523.6
651.738	514
652.134	525.2
652.552	532.2
652.971	520.8
653.389	529.8
653.786	535.4
654.204	525
654.622	510.2
655.019	516
655.438	522
655.857	518
656.275	521.6
656.673	514.4
657.091	521.6
657.51	512.4
657.908	522.6
658.327	521.6
658.746	508
659.144	519.6
659.563	524.4
659.982	517.2
660.38	505.6
660.8	501.4
661.219	520.2
661.617	519.4
662.037	516.8
662.457	518.6
662.855	506
663.275	541.4
663.695	514.4
664.094	507.2
664.514	509.2
664.934	499
665.333	513
665.753	512.2
666.152	509.2
666.572	504.6
666.993	528.2
667.392	515
667.812	510.2
668.212	507.4
668.632	512.4
669.053	504
669.453	512.8
669.874	510.2
670.273	515.8
670.694	502.8
671.116	523.6
671.515	518
671.937	510.6
672.337	501.4
672.758	502.4
673.158	522.8
673.58	504.8
673.98	508.2
674.402	517.4
674.824	513
675.224	509.2
675.646	504.4
676.047	505.6
676.469	503.4
676.869	516.4
677.292	515.2
677.693	501.4
678.115	504.2
678.516	514.8
678.939	507.6
679.34	506.8
679.762	523.6
680.164	513.2
680.586	507.2
680.988	513.4
681.411	531.6
681.812	511.4
682.236	496.6
682.637	503.6
683.061	494
683.462	514.4
683.864	504.2
684.288	521.6
684.69	503.4
685.114	508.6
685.516	512.4
685.94	508.6
686.342	516.2
686.766	497.6
687.168	507
687.571	517.2
687.995	513
688.398	499.8
688.822	514.4
689.225	529
689.628	518
690.052	512.2
690.456	507.8
690.88	505.6
691.284	495.4
691.687	507.8
692.112	497.6
692.515	501.2
692.919	509.8
693.344	506.8
693.747	503.2
694.173	496
694.577	506.2
694.98	500.8
695.406	495.8
695.81	499.2
696.214	505.2
696.64	506.4
697.044	513
697.448	509
697.874	510
698.279	507
698.684	499
699.11	503.8
699.514	504.2
699.919	507
700.324	497.8
700.75	504.2
701.156	510.4
701.561	515.4
701.987	507.6
702.393	512
702.798	510
703.203	502.6
703.63	500.8
704.036	508.6
704.442	509.4
704.847	506.4
705.274	503
705.68	509.6
706.086	520
706.492	497.4
706.92	504.8
707.326	514.8
707.732	512
708.139	501.4
708.545	498.6
708.973	498.8
709.38	507.6
709.786	500
710.193	516.2
710.6	516
711.028	499.8
711.435	505.6
711.842	503
712.249	495.6
712.656	500.4
713.064	510
713.492	501.2
713.9	495.2
714.307	508.2
714.715	500.6
715.123	504.8
715.53	504.8
715.938	514.4
716.367	502
716.775	502.4
717.184	490.8
717.592	513.4
718	516.4
718.408	533.4
718.816	546
719.225	510.4
719.633	506.2
720.042	509.4
720.472	503.2
720.881	519
721.29	510.2
721.699	493.2
722.108	507
722.517	509
722.926	509.2
723.335	509.8
723.744	506
724.154	494.8
724.563	507.6
724.973	502.6
725.382	495.4
725.792	500.6
726.202	495.4
726.612	511.2
727.022	502.2
727.432	499
779.813	500.4
780.223	539.6
780.634	494.4
781.044	495.8
781.454	504.2
781.865	519.6
782.276	493.4
782.686	508.8
783.097	505.2
783.508	509.4
783.919	503
784.33	518
784.741	507.8
785.152	502.8
785.563	493.4
785.974	500.8
786.386	516
786.776	506.2
787.188	507
787.599	496.4
788.011	506.8
788.423	503.2
788.835	497.2
789.247	497
789.659	500.2
790.071	498.2
790.483	535.6
790.874	495.8
791.286	513.6
791.699	501
792.111	500.4
792.524	506
792.937	497.4
793.349	486
793.741	498.6
794.154	498.4
794.567	517.4
794.98	504.8
795.393	494.8
795.785	519.2
796.198	498.2
796.612	507.6
797.026	494
797.439	493.8
797.831	502.8
798.245	493.4
798.659	499.4
799.073	498
799.487	500.8
799.88	500.4
800.294	500.4
800.708	505.4
801.123	500.6
801.516	515
801.93	496.6
802.345	495
802.76	510.2
803.153	516.8
803.568	511
803.983	506.6
804.377	505.6
804.792	494.8
805.207	484.8
805.601	490.4
806.016	524.6
806.432	491.4
806.826	531.2
807.242	518.8
807.658	501.6
808.052	494.6
808.468	496.8
808.884	495
809.279	493.4
809.695	514.2
810.111	517
810.506	502.2
810.922	517
811.339	497.2
811.734	500.4
812.151	490.8
812.546	497.6
812.963	494.4
813.38	507.4
813.776	507.2
814.193	518
814.589	493.2
815.006	500.2
815.402	490.6
815.82	490.2
816.237	502.4
816.633	495.8
817.051	494
817.448	496.6
817.866	491.6
818.262	510.6
818.68	491.8
819.077	494.8
819.495	495
819.892	539.2
820.311	494.4
820.708	499.2
821.127	494.6
821.524	509.4
821.943	501.4
822.34	512.4
822.759	502
823.157	495.4
823.576	511.8
823.974	505.6
824.393	554.6
824.791	497.2
825.189	489.2
825.609	498
826.007	496.4
826.427	491
826.826	497.2
827.246	506.2
827.644	481.4
828.043	508.4
828.463	494.6
828.862	504.8
829.261	501.6
829.682	492.2
830.081	503.6
830.502	497.8
830.901	508
831.301	492.2
831.722	495.6
832.121	498.6
832.521	498.6
832.943	494.4
833.342	501
833.742	494.4
834.164	497
834.564	497.6
834.965	501.6
835.386	500.2
835.787	497.2
836.188	505.6
836.588	500
837.01	495.4
837.411	492.4
837.812	501.6
838.213	500.2
838.636	490.6
839.037	550.2
839.438	495.6
839.84	501.2
840.263	497.6
840.664	499.4
841.066	491.6
841.468	493.8
841.891	493.8
842.293	496.8
842.695	498
843.098	500.2
843.5	498
843.902	502.2
844.326	497.8
844.729	497
845.131	507
845.534	503
845.937	510.4
846.34	510
846.764	498
847.167	499
847.571	493
847.974	496.8
848.377	495.6
848.781	539.4
849.184	498.6
849.588	491.2
849.992	504.4
850.396	499.8
850.821	513.4
851.225	498.4
851.63	495.8
852.034	512
852.438	507.2
852.843	563.4
853.247	492.4
853.652	490.6
854.057	509
854.462	502.4
854.867	503.4
855.272	523.8
855.677	498.4
856.082	491.2
856.487	486.4
856.893	506
857.298	501
857.704	498.4
858.11	503.6
858.516	510.4
858.922	504.4
859.328	505
859.734	503.4
860.14	497.6
860.525	495.2
860.931	493.6
861.338	496.4
861.745	500.2
862.151	509.8
862.558	499.8
862.965	496.2
863.372	494.2
863.779	497.8
864.186	508.4
864.572	503.8
864.98	510.2
865.387	527.8
865.795	500
866.203	509.2
866.61	492.4
867.018	497.6
867.405	501.4
867.813	501.4
868.221	500
868.63	493.2
869.038	499.6
869.425	526.4
869.834	504.8
870.243	492
870.652	490
871.039	493.8
871.448	498.6
871.857	502.2
872.266	499.4
872.654	499.6
873.064	493.2
873.473	501.8
873.883	493.6
874.271	493.2
874.681	500.2
875.091	491.6
875.48	507.8
875.89	514.2
876.3	496.4
876.689	492
877.1	494.8
877.51	502.4
877.9	515.4
878.31	486.2
878.721	523.2
879.111	500.4
879.522	490.8
879.933	488.6
880.323	486.4
880.734	494
881.125	498
881.536	491.8
881.948	494.6
882.338	500.6
882.75	504.6
883.141	497
883.553	506.8
883.944	517.8
884.356	503.2
884.769	492.2
885.16	501.2
885.573	499
885.964	492.6
886.377	501.8
886.768	492
887.181	499.2
887.573	490.2
887.987	505
888.378	508
888.792	507.8
889.184	532.4
889.598	494.8
889.99	496.6
890.383	496.2
890.797	490.2
891.19	514
891.604	493.6
891.997	489.8
892.411	483
892.805	491.4
893.198	495.6
893.613	487.4
894.006	497.8
894.421	492.6
894.815	496.6
895.209	492.6
895.624	524.2
896.018	512.4
896.412	489.4
896.828	501.2
897.222	497.8
897.617	498.2
898.033	517.2
898.427	500.6
898.822	495
899.239	492.2
899.634	492.4
900.029	505
900.424	492
900.841	477.2
901.236	495.8
901.632	493.2
902.027	548.6
902.445	503.2
902.841	500
903.237	504.2
903.633	505.4
904.05	498.8
904.447	498
904.843	501.6
905.24	492.2
905.636	491.6
906.033	503.2
906.451	500.6
906.848	495
907.246	485.4
907.643	495
908.04	491.8
908.438	507.2
908.835	496.4
909.254	500.2
909.652	500.8
910.05	497.2
910.448	481.4
910.846	497.2
911.244	486.2
911.643	499.4
912.041	489.4
912.44	508
912.839	491
913.237	490
913.636	488.8
914.035	497.8
914.434	490
914.834	507.2
915.233	503.2
915.633	483.8
916.032	492.2
916.432	486.6
916.832	501.8
917.232	487.2
917.632	478
918.032	496
918.432	491.2
918.833	499
919.233	493.8
919.634	497.8
920.035	498.6
920.436	494.8
920.837	496.4
921.238	488.4
921.639	494.8
922.019	501.2
922.42	495.2
922.822	500.4
923.224	489.2
923.625	494.6
924.027	495.4
924.429	508.6
924.81	492.2
925.212	496.6
925.615	498
926.017	499.8
926.42	500.4
926.801	497.2
927.204	496
927.607	500.2
928.01	512.8
928.413	491.4
928.795	482.8
929.199	485
929.602	490.2
930.006	494
930.388	483
930.792	501.6
931.196	494
931.579	523.6
931.983	489.8
932.388	532.4
932.771	497.8
933.176	484.4
933.58	490.4
933.964	495.4
934.369	483.6
934.774	499.6
935.158	492
935.563	489.8
935.947	495
936.353	491.8
936.759	488
937.143	495.8
937.549	494.6
937.934	501
938.34	504.8
938.746	484.6
939.131	493.2
939.538	489
939.923	494.8
940.33	485.4
940.716	499.4
941.123	495.2
941.508	499.4
941.916	509.4
942.302	498
942.709	490.6
943.096	487.6
943.503	500
943.89	495.2
944.298	491.8
944.685	516.2
945.072	495
945.48	507
945.867	490.4
946.276	503.8
946.663	504
947.051	512.4
947.46	506.6
947.848	499.6
948.257	491
948.645	499.8
949.033	490
949.443	492.4
949.831	526.2
950.22	481
950.63	495.6
951.018	524
951.407	498.6
951.796	502.2
952.207	496.6
952.596	506.8
952.985	489.8
953.375	530
953.786	491.6
954.176	491
954.566	511
954.956	491.8
955.367	492.6
955.758	504.6
956.148	483.2
956.539	495.4
956.929	492
957.341	488
957.732	496.2
958.123	500.4
958.515	488.4
958.906	498.4
959.297	492.2
959.689	490.2
960.102	488
960.494	497.2
960.886	499.8
961.278	491.2
961.67	508.2
962.062	522.4
962.455	486
962.847	485.4
963.24	485.2
963.633	489.2
964.026	482.4
964.419	494.8
964.812	504
965.206	484.8
965.599	501.2
965.993	487.4
966.386	493.8
966.78	494.4
967.174	500.6
967.569	491.2
967.963	482.6
968.357	485.8
968.752	489.8
969.146	484
969.541	491.2
969.936	490
970.331	497.6
970.705	496.8
971.1	497
971.496	499.8
971.892	487.8
972.287	493.4
972.683	502
973.079	491.2
973.454	503
973.85	496.4
974.247	499.6
974.643	516.8
975.04	494.2
975.415	490.6
975.812	486.2
976.209	492.2
976.607	485.8
976.982	504.2
977.38	505.8
977.778	492.8
978.175	486.2
978.552	490.2
978.95	500.6
979.348	495.6
979.725	531.8
980.123	494.4
980.522	485.6
980.899	487.2
981.298	494.4
981.697	491.8
982.075	489.2
982.474	483
982.852	492
983.251	500.8
983.651	487.2
984.029	495.6
984.429	490.6
984.808	489.4
985.208	489.2
985.609	483.2
985.987	484.4
986.388	492.8
986.768	491.2
987.168	487.6
987.548	495.8
987.949	505.2
988.329	496.2
988.731	480.4
989.111	491.8
989.491	491.6
989.893	493.2
990.273	506
990.676	495.4
991.057	487
991.459	496.6
991.84	491.4
992.221	489
992.624	508
993.006	489.2
993.388	494.6
993.791	497.2
994.173	491.2
994.576	510.2
994.959	484
995.341	487.8
995.724	487.4
996.128	492.6
996.511	494.4
996.894	480.4
997.298	486.2
997.681	489.8
998.065	494.6
998.448	486.4
998.854	493
999.237	486.2
999.621	497.8
1000.01	507.8
1000.39	495.2
1000.8	485.6
1001.18	495
1001.56	498.2
1001.95	491.4
1002.33	496.4
1002.72	487
1003.13	488.4
1003.51	488.6
1003.9	485.2
1004.28	498.6
1004.67	478.2
1005.06	486.2
1005.44	512
1005.83	483.6
1006.21	494.4
1006.6	478.6
1006.99	496.8
1007.37	497.2
1007.76	489.4
1060.12	494.4
1060.51	485.6
1060.89	497.8
1061.28	497
1061.67	501
1062.06	496.2
1062.45	492.2
1062.83	489
1063.22	495
1063.61	521.4
1064	499.8
1064.39	492.6
1064.78	493.2
1065.14	501.4
1065.53	493
1065.92	498.4
1066.31	483.6
1066.7	494.4
1067.09	502.6
1067.46	494.2
1067.85	487
1068.24	482.4
1068.63	495.2
1069.02	485.2
1069.39	501.4
1069.78	490.6
1070.17	493.6
1070.57	482.6
1070.93	494
1071.33	490.4
1071.72	490
1072.11	489.4
1072.48	486.6
1072.87	491.2
1073.26	491.6
1073.64	490
1074.03	484.6
1074.4	486.2
1074.79	485.8
1075.19	483
1075.56	496
1075.95	491.8
1076.34	488.8
1076.72	488.2
1077.11	487.2
1077.48	497.2
1077.88	491.4
1078.25	483
1078.64	492.8
1079.02	483.2
1079.41	491
1079.78	476.6
1080.18	485.4
1080.55	536.4
1080.95	484.2
1081.32	478
1081.72	485.2
1082.09	489.8
1082.49	481.2
1082.86	484.4
1083.24	481.4
1083.63	479
1084.01	490.6
1084.38	488.4
1084.78	493.8
1085.16	492.6
1085.55	502.2
1085.93	510.2
1086.31	479.2
1086.7	513
1087.08	497.6
1087.46	483
1087.83	482.8
1088.23	490.2
1088.61	486.2
1088.99	496.8
1089.36	490
1089.76	497.8
1090.14	490.4
1090.52	485.4
1090.9	494.2
1091.27	503.8
1091.67	511.6
1092.05	496
1092.43	490.4
1092.81	494.2
1093.19	492.8
1093.57	489.2
1093.95	486.2
1094.35	503.8
1094.73	490.2
1095.11	483.4
1095.49	480.2
1095.87	482.4
1096.25	504
1096.63	500.4
1097.01	488.8
1097.39	491.8
1097.77	490.2
1098.15	492.6
1098.53	480.8
1098.91	488.6
1099.29	491.6
1099.68	506
1100.06	498
1100.44	493.4
1100.82	493.4
1101.18	495
1101.56	491.2
1101.95	491
1102.33	486.6
1102.71	485.8
1103.1	482
1103.48	482.2
1103.86	479.8
1104.22	498
1104.61	491
1104.99	488
1105.38	482
1105.76	480.2
1106.12	484.8
1106.51	517.2
1106.89	499
1107.26	485.4
1107.64	494.4
1108.03	479.2
1108.41	490.4
1108.78	489.8
1109.16	489.8
1109.55	499.8
1109.91	477.4
1110.3	479.8
1110.69	493
1111.05	491.2
1111.44	485.4
1111.8	490
1112.19	491.6
1112.58	498.2
1112.94	488.4
1113.33	486
1113.7	482.8
1114.09	487
1114.45	479.4
1114.84	489.2
1115.21	505
1115.6	488.8
1115.96	483.6
1116.35	495
1116.72	485.8
1117.11	504.4
1117.48	486.2
1117.85	492.8
1118.24	499.8
1118.6	493.4
1118.99	479.8
1119.36	490.4
1119.73	486.6
1120.12	491.4
1120.49	486.8
1120.86	498.2
1121.25	487.4
1121.62	483.4
1121.99	482.8
1122.38	499.2
1122.76	487
1123.13	487.2
1123.5	492
1123.89	496.6
1124.26	480.6
1124.63	482.2
1125	488.6
1125.4	483
1125.77	487.6
1126.14	485.6
1126.51	480.6
1126.88	495.6
1127.26	484.2
1127.63	479.4
1128.02	484.4
1128.4	488
1128.77	499
1129.14	486
1129.52	496.2
1129.89	486.6
1130.26	486.8
1130.64	483.6
1131.01	491.8
