#lambda/nm	C1
208.295	466.6
208.67	436.6
209.045	397.2
209.419	402.8
209.794	541.2
210.169	526
210.544	624.4
210.919	543.4
211.295	533.2
211.67	539
212.045	526.2
212.421	542.6
212.796	569.2
213.172	530.8
213.547	533.6
213.923	535.2
214.299	537
214.675	545.4
215.051	550
215.427	549.4
215.803	547.8
216.179	540.6
216.555	529.4
216.932	542.4
217.308	539.4
217.684	532.4
218.061	550.6
218.438	536.8
218.814	534.4
219.191	547.4
219.568	536.2
219.945	538.6
220.322	546.2
220.699	540
221.076	546.4
221.453	539.6
221.83	535
222.208	533.6
222.585	527.4
222.962	548.2
223.34	533.6
223.717	534.2
224.095	540.4
224.473	535.8
224.851	534.4
225.229	526.4
225.607	550
225.985	530
226.363	539
226.741	536.8
227.119	533.8
227.497	536.8
227.876	528
228.254	545.4
228.633	537.6
229.011	535.6
229.39	538.2
229.769	539.6
230.148	541.6
230.527	556.8
230.905	535.4
231.284	536.4
231.664	532.8
232.043	547
232.422	553.4
232.801	534.6
233.181	546.6
233.56	536.6
233.94	533.2
234.319	528
234.699	539.2
235.079	569
235.458	565.2
235.838	557.2
236.218	528.6
236.598	529
236.978	533.4
237.358	529.8
237.738	536.6
238.119	541.6
238.499	530.6
238.88	532
239.26	551.4
239.641	536
240.021	533.4
240.402	534
240.783	527.2
241.163	529.6
241.544	539.4
241.925	538.4
242.306	547.6
242.687	533
243.069	534.6
243.45	541.8
243.831	531.4
244.212	534.2
244.594	572.6
244.975	543.4
245.357	537.2
245.739	533
246.12	543.2
246.502	556.8
246.884	543.2
247.266	536.4
247.648	537
248.03	553.6
248.412	549
248.794	537.6
249.176	532
249.559	545
249.941	535.6
250.323	531.6
250.706	531.6
251.089	540.6
251.471	534.6
251.854	537.4
252.237	547.2
252.62	541.4
253.002	540.6
253.385	528.4
253.769	552.6
254.152	539
254.535	540.8
254.918	537.4
255.301	539.8
255.685	533
256.068	530.4
256.452	556.2
256.835	545.6
257.219	548.2
257.603	554.6
257.986	530.2
258.37	546
258.754	529.8
259.138	540.8
259.522	541
259.906	524.2
260.29	529.8
260.675	536.4
261.059	536.4
261.443	527.2
261.828	544
262.212	539.6
262.597	531.6
262.981	535.4
263.366	537.8
263.751	533.4
264.136	530.4
264.521	538.4
264.906	530
265.291	545.8
265.676	540.8
266.061	534.8
266.446	549.4
266.831	541.2
267.217	554
267.602	540.8
267.987	537.6
268.373	531.6
268.759	545.6
269.144	544.8
269.53	534.6
269.916	542.2
270.302	537.6
270.688	546.4
271.074	544
271.46	547.6
271.846	554.2
272.232	537.6
272.618	524.8
273.004	541.2
273.391	541.8
273.777	547.8
274.164	536.2
274.55	543.4
274.937	547.4
275.324	533.4
275.71	542.8
276.097	551.2
276.484	531.2
276.871	537.6
277.258	546.6
277.645	532.8
278.032	544.8
278.419	536.2
278.807	549.4
279.194	534.6
279.581	534.2
279.969	541.6
280.356	540.2
280.744	548.2
281.131	562.8
281.519	544.6
281.907	536.8
282.295	543.8
282.682	556.8
283.07	543.4
283.458	547
283.846	540.4
284.235	543.2
284.623	541
285.011	532.6
285.399	541.4
285.788	533.4
286.176	527.6
286.565	552.4
286.953	535.4
287.342	531.4
287.731	533.2
288.119	529.2
288.508	539
288.897	543.6
289.286	528.6
289.675	539.4
290.064	543.2
290.453	533.6
290.821	543.2
291.21	549.8
291.599	532.8
291.989	537
292.378	540
292.768	547.8
293.157	539
293.547	533.4
293.936	531.2
294.326	530.4
294.716	538.2
295.106	529.6
295.496	535.4
295.886	544.2
296.276	535.6
296.666	535.2
297.056	533.8
297.446	525.2
297.836	543.6
298.227	536.4
298.617	533.8
299.008	544.8
299.398	536.8
299.789	536
300.179	538.6
300.57	544.8
300.961	536.8
301.352	539.2
301.742	545.6
302.133	539.6
302.524	538.2
302.915	533.4
303.307	528.8
303.698	549.8
304.089	544
304.48	541.4
304.872	542
305.263	535.2
305.655	533.2
306.046	539.6
306.438	538.8
306.829	531
307.221	551.6
307.613	545.2
308.005	542
308.397	540.8
308.789	551.8
309.181	554.8
309.573	558.6
309.965	548.6
310.357	533.2
310.749	543.8
311.142	525.6
311.534	535.4
311.926	537.4
312.319	536.8
312.711	533
313.104	546.6
313.497	537.8
313.889	563.2
314.282	552.4
314.675	557.8
315.068	537.6
315.461	539.8
315.854	569
316.247	545.4
316.64	545.4
317.033	536
317.405	545.6
317.798	537.2
318.192	540.8
318.585	535.6
318.979	544.4
319.372	535.6
319.766	539.2
320.16	542.2
320.553	548.6
320.947	546.8
321.341	536
321.735	537.6
322.129	528
322.523	553.6
322.917	529.2
323.311	552.6
323.705	534.6
324.099	534.6
324.494	543.6
324.888	542.2
325.282	537.2
325.677	551.4
326.071	546.4
326.466	544.4
326.861	536.6
327.255	547.4
327.65	551.6
328.045	550.2
328.44	533
328.835	533.4
329.23	533.2
329.625	555.2
330.02	537.6
330.415	552.8
330.81	535.6
331.206	542.2
331.601	534.2
331.996	539.2
332.37	557.6
332.766	526.8
333.161	556.4
333.557	533
333.953	536.2
334.348	830.4
334.744	537.2
335.14	534.6
335.536	532.2
335.932	548.2
336.328	536.8
336.724	546.8
337.12	536
337.516	543
337.913	536
338.309	546.6
338.705	536.6
339.102	549.4
339.498	533.2
339.895	545.4
340.291	537.4
340.688	547.8
341.085	531.8
341.481	535.4
341.878	538.4
342.275	551.2
342.672	532.6
343.069	530
343.466	524.6
343.842	545.2
344.239	533.2
344.636	536.2
345.033	529
345.431	528.4
345.828	535.8
346.225	530.4
346.623	563.6
347.02	538
347.418	545.4
347.816	553.8
348.213	532.4
348.611	534.2
349.009	537.6
349.407	542
349.805	526.4
350.203	528.2
350.601	552
350.999	527.6
351.397	573.2
351.795	531.4
352.193	540.4
352.57	540
352.969	546.6
353.367	522.6
353.766	524
354.164	535.8
354.563	540.2
354.961	537.8
355.36	528.2
355.759	535.6
356.158	523.8
356.557	526.2
356.956	523.4
357.355	529.8
357.754	535.8
358.153	534.2
358.552	546
358.951	527
359.35	543.2
359.75	527.4
360.149	526.6
360.527	525.6
360.926	520.6
361.326	529
361.726	536.8
362.125	525.6
362.525	532.2
362.925	522.6
363.325	531.4
363.724	538.8
364.124	520.8
364.524	525.4
364.924	529.4
365.324	536.4
365.725	520.2
366.125	538.4
366.525	533
366.904	529.4
367.304	521.6
367.705	543.4
368.105	535.2
368.506	532
368.906	534.8
369.307	524.4
369.708	534.4
370.108	518.4
370.509	535.4
370.91	519.2
371.311	529.6
371.712	537.6
372.113	530.2
372.514	521
372.894	527.6
373.295	526.6
373.696	542.4
374.097	541.2
374.499	556
374.9	540.2
375.301	524
375.703	536
376.105	526.8
376.506	527.4
376.908	539.2
377.309	529
377.711	533.4
378.113	529.8
378.493	529.4
378.895	528.6
379.297	536.4
379.699	522.4
380.102	540.4
380.504	529.8
380.906	524.4
381.308	560
381.71	530.4
382.113	532.2
382.515	528.8
382.918	528.6
383.299	536.6
383.701	538.4
384.104	528.2
384.507	510.6
384.909	529
385.312	520.6
385.715	524.2
386.118	532
386.521	521.6
386.924	538.4
387.327	529.4
387.709	518.6
388.112	515.8
388.515	520.2
388.918	526.8
389.322	525
389.725	514.2
390.129	542
390.532	528
390.936	523.8
391.339	522.6
391.743	534.8
392.125	524
392.529	534.6
392.933	528.2
393.337	521.6
393.74	523.4
394.144	527.4
394.548	520
394.953	523.8
395.357	534.4
395.761	522
396.144	525.6
396.548	527.4
396.952	533.4
397.357	529.2
397.761	529.2
398.166	528
398.57	523.4
398.975	520.2
399.379	533.8
399.763	567
400.168	529.8
400.572	529.6
400.977	524.2
401.382	540
401.787	536.6
402.192	539.2
402.597	537.8
403.002	519
403.386	541
403.791	546
404.197	529.2
404.602	528.2
405.007	532
405.413	527.4
405.818	530.2
406.224	525.6
406.608	533.4
407.014	529.6
407.42	544.8
407.825	526.8
408.231	539.6
408.637	536.8
409.043	536.8
409.449	527.6
409.834	526.8
410.24	530
410.646	536.6
411.052	539.2
411.458	531
411.865	536.6
412.271	539
412.677	527.8
413.062	534.4
413.469	525.8
413.875	545.6
414.282	544.2
414.689	526.8
415.095	533.8
415.502	526.4
415.888	532
416.294	515.4
416.701	567
417.108	528.8
417.515	530
417.923	531.8
418.33	547.6
418.715	541.6
419.123	522
419.53	519.8
419.937	528.4
420.345	539
420.752	535.6
421.16	537.2
421.546	529.8
421.953	533.4
422.361	515.6
422.769	534.8
423.177	520.8
423.585	552
423.992	541.4
424.379	533
424.787	533.4
425.195	545.8
425.603	533.4
426.011	532.2
426.419	540.2
426.806	533.4
427.214	540.2
427.623	530.8
428.031	552.6
428.44	530.2
428.848	537.4
429.235	542.2
429.644	525.2
430.053	533.8
430.461	541.8
430.87	549.8
431.279	536.6
431.666	532
432.075	534.2
432.484	538.8
432.893	531.4
433.302	543
433.711	567.2
434.099	529.4
434.508	524.8
434.918	532.2
435.327	533
435.737	533.6
436.125	532.2
436.534	535.4
436.944	527
437.353	537.2
437.763	543.2
438.173	518
438.561	538
438.971	517.8
439.381	521.6
439.791	522.4
440.201	519
440.589	532.2
440.999	537
441.409	538.8
441.819	523.6
442.23	533.2
442.619	533.8
443.029	528.6
443.439	528.2
443.85	530.2
444.26	540
444.649	533.6
445.06	532.8
445.471	523
445.881	533.4
446.292	549.8
446.682	541.8
447.092	526
447.503	570
447.914	527.2
448.325	530.4
448.715	530.8
449.126	526.8
449.537	532.2
449.948	526.2
450.338	532.4
450.75	530
451.161	520.4
451.572	529.2
451.984	529.2
452.374	512.4
452.786	532.8
453.197	538
453.609	532.4
453.999	518.4
454.411	514.4
454.823	540.2
455.235	523.4
455.647	523.2
456.037	528.6
456.449	512.4
456.862	526.6
457.274	526.8
457.665	520
458.077	536
458.489	545.2
458.902	527.4
459.293	525.4
459.705	525
460.118	528.4
460.53	527.8
460.921	523.4
461.334	529
461.747	532.4
462.16	538.2
462.551	537.2
462.964	525.8
463.377	518.4
463.79	525.2
464.182	537
464.595	520
465.008	532.4
465.421	532.4
465.813	527.2
466.226	532.2
466.64	520
467.053	566.6
467.445	534.6
467.859	533.2
468.272	525.4
468.686	533.2
469.078	530.4
469.492	518.2
469.906	524.6
470.298	532.2
470.712	522.8
471.126	551.2
471.54	513.6
471.933	518.2
472.347	526.4
472.761	524.8
473.175	518.8
473.568	530.8
473.982	517
474.397	518.4
474.79	526
475.204	526.8
475.619	520.8
476.033	529.2
476.426	518.2
476.841	518.8
477.256	542
477.649	515
478.064	514
478.479	524.8
478.872	514.6
479.287	504
479.702	507.8
480.118	525
480.511	521.8
480.927	524.8
481.342	519
481.736	526
482.151	518.4
482.566	529.8
482.96	517.8
483.376	528.6
483.792	511.4
484.186	527.6
484.602	519.6
485.017	522.6
485.412	521.4
485.827	527
486.243	520.2
486.638	536.4
487.054	525.2
487.47	530.4
487.865	513
488.281	510.6
488.697	504
489.092	520
489.508	508.2
489.925	526.6
490.32	511
490.736	532
491.153	516.4
491.548	520
491.964	529.8
492.381	507.2
492.776	526.6
493.193	523
493.61	525
494.006	522.6
494.422	522
494.84	511.4
495.235	525.2
495.652	524.2
496.069	521.6
496.465	508.4
496.883	515.2
497.3	548.8
497.696	519.2
498.113	530.4
498.509	512
498.927	510
499.344	518
499.741	512.6
500.158	522.8
500.576	531.4
500.973	522.4
501.39	512.8
501.787	513.4
502.205	529
502.623	521
503.02	509.2
503.438	517.2
503.856	518.8
504.253	518.8
504.671	518.2
505.068	515.4
505.486	519.4
505.905	535
506.302	515.6
506.72	523.8
507.118	516.4
507.536	526.8
507.955	516.6
508.352	519.6
508.771	531.4
509.169	522.6
509.587	518.4
510.006	521.8
510.404	513
510.823	509.6
511.221	518.8
511.64	517.8
512.038	531.6
512.457	520.6
512.877	519.6
513.275	510
513.694	516
514.092	522.2
514.512	514
514.91	522.4
515.33	524.6
515.749	523.8
516.148	521
516.568	523
516.966	517.4
517.386	509.6
517.785	518.6
518.205	521.6
518.603	508.2
519.024	507.8
519.444	515.2
519.843	525
520.263	524
520.662	512
521.082	510.4
521.481	507.6
521.902	516.6
522.301	510.8
522.722	515.8
523.121	514.8
523.542	512.6
523.963	519.2
524.362	520.8
524.783	527.4
525.183	518.6
525.604	519.4
526.003	514.4
526.425	512.4
526.824	524.8
527.246	524.2
527.646	532.8
528.067	518.4
528.467	514.2
528.888	514.6
529.289	512.4
529.71	518.2
530.11	516.4
530.532	514.4
530.932	510.2
531.354	510.8
531.755	539.4
532.176	524.2
532.577	522.2
532.999	516.6
533.4	524.4
533.822	525
534.223	519.2
534.645	518.4
535.046	513.4
535.468	512.8
535.869	524.2
536.292	511.6
536.693	542.2
537.115	516.2
537.516	511.6
537.939	516
538.34	531.4
538.742	518.8
539.165	522.8
539.566	518.6
539.989	514.2
540.391	509.4
540.814	519.2
541.216	519
541.639	519
542.041	525.4
542.464	514.8
542.866	516.2
543.268	509.4
543.691	516.8
544.093	523.8
544.517	532.2
544.919	509.2
545.343	534.8
545.745	514.4
546.147	516.4
546.571	512.2
546.974	513.4
547.398	522.2
547.8	529
548.224	508.4
548.627	510.4
549.03	526.2
549.454	508.4
549.857	509.2
550.281	506.4
550.684	516
551.087	519.4
551.512	515.2
551.915	516.2
552.34	515.8
552.743	510.2
553.146	519.6
553.571	504
553.975	531.6
554.399	502.6
554.803	549
555.207	513.4
555.632	513.8
556.036	517
556.461	510.8
556.865	512
557.268	512.4
557.694	521
558.098	527.2
558.502	513.8
558.927	512.8
559.332	515.6
559.736	510.8
560.162	523.2
560.566	512.8
560.992	520.8
561.396	516
561.801	511.6
562.227	517
562.631	520.6
563.036	514
563.462	518.6
563.867	518.2
564.272	511.2
564.698	521.6
565.103	504.2
565.508	534
565.935	517.6
566.34	516.8
566.745	530.6
567.172	513.2
567.577	532.6
567.982	532.8
568.409	516.4
568.815	513
569.22	520
569.626	523.2
570.053	515.2
570.459	515.2
570.865	527.2
571.292	528
571.698	522.2
572.104	504.6
572.531	511.8
572.937	525.8
573.343	523.4
573.75	507.4
574.177	515
574.583	523
574.99	514
575.396	518
575.824	505.8
576.231	516
576.637	511
577.065	536.8
577.472	511.2
577.879	509
578.286	525.4
578.714	516.4
579.121	514.8
579.528	521
579.935	526.2
580.364	516.8
580.771	507
581.178	510.6
581.585	507.8
582.014	524.4
582.421	507.4
582.829	518.6
583.236	517.2
583.644	505.2
584.073	516.6
584.481	516.2
584.889	511.2
585.296	510.2
585.726	512.2
586.134	499.2
586.542	501
586.95	527.8
587.358	500.6
587.787	518.4
588.196	506.4
588.604	506.2
589.012	514.6
589.421	505.2
589.851	509.6
590.259	519.4
590.668	507.6
591.076	542.2
591.485	505.4
591.894	513.2
592.324	519.2
592.733	522.4
593.142	509
593.551	511.2
593.96	548.2
594.369	501
594.8	508
595.209	508.2
595.618	498.4
596.028	514.6
596.437	501.2
596.847	510.4
597.256	514.4
597.687	513.8
598.097	512
598.507	509.6
598.917	520.2
599.327	521.2
599.736	519.8
600.146	529.8
600.556	511.4
600.988	525.2
601.398	509.6
601.808	518.6
602.219	508.4
602.629	516.8
603.039	508.8
603.45	548.4
603.86	510
604.271	529
604.703	514
605.114	511.4
605.525	515.8
605.935	520.8
606.346	529.8
606.757	513.2
607.168	512.8
607.579	511
607.99	520.6
608.402	520.4
608.813	514.8
609.224	511.8
609.636	510.6
610.047	511.6
610.48	520.2
610.892	519.2
611.303	523.6
611.715	515.2
612.127	506.4
612.539	510.6
612.95	516.6
613.362	499.6
613.774	506.4
614.186	512.6
614.599	510.6
615.011	524
615.423	508.6
615.835	507.8
616.248	501.2
616.66	511.6
617.073	501.4
617.485	503.2
617.898	520.8
618.311	510.4
618.723	510.8
619.136	537
619.549	531.2
619.962	533.2
620.375	519.4
620.788	515
621.201	509.6
621.614	520.2
622.028	520.6
622.441	517.2
622.854	529.4
623.268	506
623.681	520.4
624.095	517.8
624.509	524
624.922	517
625.336	508.8
625.728	518.2
626.142	525.8
626.556	528.6
626.97	523.2
627.384	517.4
627.799	520.4
628.213	529.8
628.627	514
629.041	512.6
629.456	518.8
629.87	520.6
630.285	523.6
630.699	526
631.093	512.8
631.507	519.8
631.922	521.4
632.337	522.6
632.752	500.6
633.167	511.6
633.582	514.2
633.997	512.2
634.412	505.2
634.806	514.2
635.221	519.2
635.637	526.2
636.052	509.8
636.468	521
636.883	532.8
637.299	513
637.715	512.6
638.109	520.4
638.525	511
638.941	523
639.357	520.8
639.773	528.8
640.189	512.4
640.584	519.4
641	514
641.416	507.2
641.832	512.6
642.249	512.4
642.665	515.4
643.06	514.6
643.477	518.4
643.894	507.2
644.31	508.4
644.727	508.8
645.123	517.4
645.54	507.2
645.957	522
646.374	524
646.77	517
647.187	539.6
647.604	514
648.021	505.8
648.439	504.4
648.835	510.2
649.252	509.4
649.67	507.4
650.088	513.8
650.484	510.4
650.902	511.8
651.32	513.2
651.738	510.4
652.134	515.4
652.552	521.2
652.971	516.2
653.389	516.2
653.786	520.2
654.204	513.4
654.622	504.4
655.019	511.8
655.438	525.8
655.857	506.8
656.275	514.2
656.673	506.2
657.091	523
657.51	508.4
657.908	517.6
658.327	521.8
658.746	504.2
659.144	516.2
659.563	520
659.982	516
660.38	507.6
660.8	513.8
661.219	523.4
661.617	524.4
662.037	513.8
662.457	516
662.855	505.6
663.275	537
663.695	512.8
664.094	513
664.514	520.4
664.934	506.8
665.333	524
665.753	506.8
666.152	505.8
666.572	505.4
666.993	521.2
667.392	497.8
667.812	513.2
668.212	503.2
668.632	523.8
669.053	507.2
669.453	516
669.874	512.2
670.273	503.8
670.694	504.8
671.116	519.6
671.515	509.8
671.937	509.8
672.337	514.4
672.758	505
673.158	516.2
673.58	501.8
673.98	509.2
674.402	516.8
674.824	505.4
675.224	510.6
675.646	502
676.047	503.2
676.469	510.8
676.869	512.4
677.292	511.6
677.693	499.4
678.115	505.4
678.516	515.8
678.939	512.4
679.34	506
679.762	516.8
680.164	507.6
680.586	503.8
680.988	509.4
681.411	516.2
681.812	495.6
682.236	497.4
682.637	500.2
683.061	503
683.462	509.6
683.864	504.8
684.288	507.2
684.69	505.2
685.114	514.8
685.516	510.4
685.94	499.6
686.342	504
686.766	499
687.168	508.8
687.571	517.6
687.995	511
688.398	495.2
688.822	504.4
689.225	517.2
689.628	521.6
690.052	504
690.456	504.2
690.88	505.6
691.284	501.8
691.687	512.6
692.112	500
692.515	499.6
692.919	508.2
693.344	512.8
693.747	496.2
694.173	504.2
694.577	523.8
694.98	513.6
695.406	505.2
695.81	513.4
696.214	506.8
696.64	508.6
697.044	515
697.448	519.2
697.874	504.6
698.279	513.4
698.684	502.8
699.11	502.6
699.514	500
699.919	506.2
700.324	501.6
700.75	507.8
701.156	506.2
701.561	521.2
701.987	514
702.393	513.8
702.798	516.8
703.203	504.8
703.63	503.8
704.036	500.2
704.442	504.6
704.847	506.4
705.274	507.6
705.68	508.8
706.086	523.6
706.492	497.6
706.92	505.6
707.326	519.6
707.732	508.6
708.139	501
708.545	498.8
708.973	509.8
709.38	505.6
709.786	498.8
710.193	518.2
710.6	510.2
711.028	495.8
711.435	505.2
711.842	504.2
712.249	499.4
712.656	503.4
713.064	511.2
713.492	496
713.9	494.4
714.307	497.2
714.715	508
715.123	501.2
715.53	499.8
715.938	516.2
716.367	506.8
716.775	504.6
717.184	497
717.592	500.2
718	512.6
718.408	532
718.816	540.2
719.225	509.8
719.633	506
720.042	497.8
720.472	507.4
720.881	520.2
721.29	514.2
721.699	503.6
722.108	510.6
722.517	510
722.926	499
723.335	512
723.744	504.8
724.154	507
724.563	504.8
724.973	507
725.382	507.8
725.792	504
726.202	499.8
726.612	504.6
727.022	498
727.432	493.4
779.813	504.6
780.223	539.4
780.634	504.4
781.044	494.6
781.454	496.8
781.865	509.4
782.276	502.8
782.686	510.2
783.097	491.4
783.508	500.2
783.919	508.4
784.33	508.4
784.741	515.6
785.152	499.8
785.563	489.6
785.974	496
786.386	516.6
786.776	504.4
787.188	504
787.599	498.2
788.011	507.4
788.423	507.4
788.835	502.8
789.247	498.6
789.659	506.2
790.071	495
790.483	541.4
790.874	508.4
791.286	506
791.699	501.2
792.111	505.2
792.524	501.8
792.937	499
793.349	496.6
793.741	503.6
794.154	502.8
794.567	518.8
794.98	502.8
795.393	494.8
795.785	514.2
796.198	501.4
796.612	495.2
797.026	499.4
797.439	498.4
797.831	502.4
798.245	489.6
798.659	500.8
799.073	499.6
799.487	495.6
799.88	502.4
800.294	505
800.708	514.4
801.123	499
801.516	509.6
801.93	496.2
802.345	497.2
802.76	510.2
803.153	512.6
803.568	510
803.983	510.2
804.377	510
804.792	491
805.207	491.6
805.601	504
806.016	525.8
806.432	509.6
806.826	526.2
807.242	512.4
807.658	506
808.052	494.6
808.468	503.4
808.884	503.2
809.279	504.8
809.695	509.4
810.111	516.8
810.506	507
810.922	522.6
811.339	501.8
811.734	502
812.151	509
812.546	495.6
812.963	495.8
813.38	499.6
813.776	505.4
814.193	521.8
814.589	494.6
815.006	506
815.402	503.8
815.82	501
816.237	502.4
816.633	506.6
817.051	495.8
817.448	503
817.866	502.4
818.262	519.6
818.68	496.8
819.077	503.8
819.495	504.6
819.892	536.6
820.311	494.4
820.708	497.2
821.127	498.2
821.524	512.6
821.943	510
822.34	511.2
822.759	506.4
823.157	504.6
823.576	509.2
823.974	501.8
824.393	567
824.791	503.6
825.189	499
825.609	498.4
826.007	507.8
826.427	490.6
826.826	499.4
827.246	500.2
827.644	493
828.043	510.4
828.463	494.8
828.862	510.4
829.261	503.6
829.682	495
830.081	505.6
830.502	503.4
830.901	503.4
831.301	491.6
831.722	487.8
832.121	493.2
832.521	498.8
832.943	505.8
833.342	504.8
833.742	487.4
834.164	500
834.564	490
834.965	498.8
835.386	500.4
835.787	501.2
836.188	500.2
836.588	500.8
837.01	511.6
837.411	501.8
837.812	510.4
838.213	502.2
838.636	503.4
839.037	559.8
839.438	501.8
839.84	501.8
840.263	509
840.664	496.4
841.066	499.2
841.468	504.8
841.891	497.4
842.293	509.8
842.695	514.4
843.098	510
843.5	501
843.902	503.8
844.326	507
844.729	499.4
845.131	509.6
845.534	501.6
845.937	513.4
846.34	518.8
846.764	495.4
847.167	506.8
847.571	498.4
847.974	496.8
848.377	508.8
848.781	533.2
849.184	499.8
849.588	497.4
849.992	499
850.396	501.4
850.821	518.8
851.225	502.4
851.63	499.4
852.034	508
852.438	498.8
852.843	568.2
853.247	499.4
853.652	495
854.057	520.4
854.462	500.4
854.867	504.6
855.272	522.6
855.677	509.6
856.082	497.6
856.487	495.8
856.893	503.8
857.298	506.8
857.704	494.4
858.11	501.6
858.516	504.4
858.922	500.6
859.328	502.4
859.734	503.2
860.14	513.2
860.525	500.6
860.931	491
861.338	494.4
861.745	498
862.151	505.4
862.558	495.4
862.965	486.2
863.372	499.6
863.779	500.2
864.186	512
864.572	501.6
864.98	516.2
865.387	521.6
865.795	488.8
866.203	506
866.61	489.6
867.018	502
867.405	505.4
867.813	500
868.221	494.2
868.63	501.4
869.038	511.4
869.425	529.8
869.834	494.8
870.243	493.4
870.652	494
871.039	497.4
871.448	491
871.857	503.2
872.266	498.6
872.654	501.8
873.064	491.4
873.473	502.4
873.883	495.6
874.271	495.4
874.681	516.8
875.091	489.2
875.48	510.6
875.89	509.4
876.3	494
876.689	489.8
877.1	497.6
877.51	497
877.9	513
878.31	498.8
878.721	525.2
879.111	499.4
879.522	504.6
879.933	491.8
880.323	495.2
880.734	501
881.125	500.4
881.536	492
881.948	493
882.338	501.8
882.75	500.2
883.141	494.2
883.553	505
883.944	515.2
884.356	499.2
884.769	499.8
885.16	497.6
885.573	504.8
885.964	494.2
886.377	503.2
886.768	492.2
887.181	507.4
887.573	489.6
887.987	510
888.378	506.6
888.792	498.8
889.184	542.8
889.598	485.8
889.99	500.8
890.383	497.6
890.797	487.2
891.19	509
891.604	493.4
891.997	490.4
892.411	492.8
892.805	491.4
893.198	489.8
893.613	486.4
894.006	500.2
894.421	484.8
894.815	497.4
895.209	492.8
895.624	527
896.018	509.2
896.412	496.8
896.828	500.8
897.222	496.2
897.617	488.6
898.033	518
898.427	498.2
898.822	499.2
899.239	498
899.634	487.6
900.029	511.6
900.424	493
900.841	489.8
901.236	512.2
901.632	501.4
902.027	548
902.445	500.2
902.841	508
903.237	493.2
903.633	516.6
904.05	502
904.447	492.2
904.843	505.2
905.24	497
905.636	492.4
906.033	494.4
906.451	508.4
906.848	488.6
907.246	493
907.643	497.6
908.04	501.6
908.438	514.4
908.835	509.6
909.254	492.6
909.652	505.8
910.05	502.2
910.448	491.8
910.846	497.8
911.244	489.6
911.643	501.4
912.041	496.4
912.44	507.8
912.839	492.6
913.237	498
913.636	495.6
914.035	503
914.434	495.8
914.834	508.2
915.233	508.2
915.633	494.8
916.032	492.6
916.432	490.6
916.832	507.8
917.232	496
917.632	495.6
918.032	501
918.432	495
918.833	499.8
919.233	499.4
919.634	495
920.035	507.2
920.436	486.6
920.837	498.8
921.238	495.2
921.639	494.2
922.019	501.2
922.42	498.4
922.822	488.6
923.224	489.8
923.625	491
924.027	493.4
924.429	513
924.81	497.4
925.212	500
925.615	487.6
926.017	503.8
926.42	505
926.801	496.8
927.204	494.4
927.607	505
928.01	511.8
928.413	499.8
928.795	494.6
929.199	491.2
929.602	498.2
930.006	491.6
930.388	495.6
930.792	498.8
931.196	484.4
931.579	529.6
931.983	492.2
932.388	535.8
932.771	493.8
933.176	491.6
933.58	495.2
933.964	502.6
934.369	487.4
934.774	503.6
935.158	490.2
935.563	492.6
935.947	499.2
936.353	499.8
936.759	486
937.143	504.4
937.549	500.8
937.934	504.6
938.34	510.4
938.746	496.4
939.131	493.8
939.538	485
939.923	499.6
940.33	495
940.716	491
941.123	510.6
941.508	506.2
941.916	510.4
942.302	499.6
942.709	487
943.096	491.4
943.503	502.6
943.89	486.6
944.298	498
944.685	518
945.072	497.6
945.48	506.8
945.867	491.6
946.276	491.8
946.663	508.8
947.051	515.6
947.46	499.6
947.848	498.4
948.257	494.8
948.645	498.6
949.033	493
949.443	491.6
949.831	530
950.22	497.4
950.63	499.6
951.018	524.6
951.407	494.4
951.796	487.6
952.207	504
952.596	499.6
952.985	492.6
953.375	529.6
953.786	498.4
954.176	496.6
954.566	506.2
954.956	485.8
955.367	488.6
955.758	504.4
956.148	489.6
956.539	504.8
956.929	487.8
957.341	489
957.732	486
958.123	504.2
958.515	489.4
958.906	491.8
959.297	500.4
959.689	495
960.102	487.2
960.494	492.6
960.886	493.4
961.278	492.8
961.67	509.2
962.062	526.6
962.455	492
962.847	493.4
963.24	482.6
963.633	490.6
964.026	486.6
964.419	497.8
964.812	503.4
965.206	490.6
965.599	502.2
965.993	487.8
966.386	495.4
966.78	494.4
967.174	503.8
967.569	491.8
967.963	483.2
968.357	489.8
968.752	489.2
969.146	490.2
969.541	493.8
969.936	490.4
970.331	495.6
970.705	487.8
971.1	494
971.496	498.4
971.892	495
972.287	496.6
972.683	494.2
973.079	492
973.454	510.6
973.85	497.2
974.247	498.2
974.643	513.2
975.04	497
975.415	486.8
975.812	495.2
976.209	493.2
976.607	492.8
976.982	497
977.38	507.6
977.778	499.8
978.175	485.4
978.552	498.2
978.95	501.4
979.348	501.8
979.725	532.2
980.123	498.2
980.522	499.4
980.899	501.6
981.298	495
981.697	491
982.075	489.2
982.474	487.4
982.852	500.8
983.251	501
983.651	488.4
984.029	502
984.429	498.6
984.808	484.6
985.208	490.6
985.609	486.8
985.987	484.8
986.388	482.4
986.768	494.4
987.168	486
987.548	494.8
987.949	501.8
988.329	497.6
988.731	482.4
989.111	490.8
989.491	490
989.893	488.8
990.273	503.8
990.676	490.2
991.057	489.2
991.459	495.4
991.84	497
992.221	483.8
992.624	509.6
993.006	488
993.388	499.6
993.791	499.6
994.173	498.2
994.576	519
994.959	486.8
995.341	490.2
995.724	498.6
996.128	496
996.511	498.6
996.894	490.2
997.298	488.4
997.681	500
998.065	494.2
998.448	489
998.854	497.4
999.237	488.8
999.621	492.6
1000.01	503.2
1000.39	499.4
1000.8	490.8
1001.18	502.4
1001.56	498.8
1001.95	500.6
1002.33	497
1002.72	492.2
1003.13	498.2
1003.51	504.4
1003.9	488
1004.28	502.6
1004.67	496
1005.06	494.6
1005.44	525
1005.83	484.2
1006.21	495.8
1006.6	486
1006.99	504.6
1007.37	498.6
1007.76	499
1060.12	490
1060.51	497.8
1060.89	498.2
1061.28	504.4
1061.67	499
1062.06	497.8
1062.45	496.6
1062.83	492
1063.22	501.2
1063.61	526.4
1064	503.2
1064.39	485.4
1064.78	493
1065.14	505.2
1065.53	496.6
1065.92	489.4
1066.31	485.8
1066.7	495.8
1067.09	501.8
1067.46	500.6
1067.85	496.2
1068.24	491.6
1068.63	498.6
1069.02	486
1069.39	496
1069.78	488.8
1070.17	487.8
1070.57	483.2
1070.93	494.6
1071.33	484.6
1071.72	492.8
1072.11	489.4
1072.48	491.4
1072.87	495.4
1073.26	500.8
1073.64	493.8
1074.03	485.4
1074.4	497.8
1074.79	491.4
1075.19	504.6
1075.56	495.8
1075.95	496.2
1076.34	492
1076.72	493.4
1077.11	494.8
1077.48	490.4
1077.88	496.4
1078.25	487
1078.64	501.8
1079.02	495.4
1079.41	499.6
1079.78	491.6
1080.18	489.2
1080.55	549.2
1080.95	493.4
1081.32	487
1081.72	496.2
1082.09	497.2
1082.49	490
1082.86	495.8
1083.24	482.8
1083.63	489.2
1084.01	490
1084.38	496.6
1084.78	488.8
1085.16	493.4
1085.55	506
1085.93	504.6
1086.31	485
1086.7	521.4
1087.08	504.4
1087.46	491.4
1087.83	490.8
1088.23	502.2
1088.61	497.2
1088.99	490
1089.36	490
1089.76	497.8
1090.14	489.8
1090.52	492.8
1090.9	487.4
1091.27	506.6
1091.67	521.4
1092.05	501.2
1092.43	478.8
1092.81	498
1093.19	494.8
1093.57	494
1093.95	496.4
1094.35	507.8
1094.73	504.8
1095.11	489.6
1095.49	484.2
1095.87	483.8
1096.25	503.2
1096.63	494.2
1097.01	490.6
1097.39	499.4
1097.77	493.6
1098.15	495.8
1098.53	484
1098.91	484.6
1099.29	488.4
1099.68	503.2
1100.06	495.8
1100.44	484
1100.82	486.8
1101.18	492.8
1101.56	491
1101.95	484.4
1102.33	491.4
1102.71	496.4
1103.1	487.2
1103.48	483.2
1103.86	488.4
1104.22	490.2
1104.61	491.2
1104.99	487.2
1105.38	484.4
1105.76	484.8
1106.12	494.8
1106.51	522
1106.89	496
1107.26	493.8
1107.64	496.2
1108.03	488.2
1108.41	493.6
1108.78	494.4
1109.16	489
1109.55	500.8
1109.91	481.2
1110.3	476.8
1110.69	500.2
1111.05	489.6
1111.44	486.4
1111.8	483.6
1112.19	495.2
1112.58	488.2
1112.94	492.2
1113.33	485.4
1113.7	486.2
1114.09	488
1114.45	484
1114.84	494.8
1115.21	499
1115.6	488.8
1115.96	489.4
1116.35	500.2
1116.72	498.2
1117.11	500.6
1117.48	492.2
1117.85	492.4
1118.24	505.6
1118.6	493
1118.99	485.2
1119.36	493
1119.73	490.2
1120.12	491.4
1120.49	487.6
1120.86	492.6
1121.25	486.6
1121.62	485
1121.99	486.2
1122.38	500.4
1122.76	489.6
1123.13	485.4
1123.5	495.4
1123.89	495.6
1124.26	489.4
1124.63	490.4
1125	493.4
1125.4	481.8
1125.77	483.2
1126.14	476
1126.51	487.2
1126.88	494.6
1127.26	487.4
1127.63	483.2
1128.02	488.6
1128.4	486.6
1128.77	481.4
1129.14	488.4
1129.52	487
1129.89	493.8
1130.26	479.8
1130.64	490.4
1131.01	484.8
