#lambda/nm	C1
208.295	466.4
208.67	436.4
209.045	395.6
209.419	400.4
209.794	542.6
210.169	524.8
210.544	628.6
210.919	544.8
211.295	540
211.67	536
212.045	524.8
212.421	539
212.796	567.2
213.172	531
213.547	536.2
213.923	535.2
214.299	530.6
214.675	542.8
215.051	534.6
215.427	539.6
215.803	549
216.179	538.2
216.555	536.4
216.932	538
217.308	546
217.684	541.2
218.061	552.4
218.438	543.4
218.814	531
219.191	544.6
219.568	535.6
219.945	525.4
220.322	549.6
220.699	549.2
221.076	544
221.453	543.8
221.83	528
222.208	528.8
222.585	530
222.962	534
223.34	542.8
223.717	532.6
224.095	536
224.473	534.4
224.851	533.6
225.229	523.4
225.607	540.4
225.985	537
226.363	535.8
226.741	545.6
227.119	542
227.497	550
227.876	525.8
228.254	537.8
228.633	536.6
229.011	541.8
229.39	545.2
229.769	537.2
230.148	547
230.527	555
230.905	536.6
231.284	548
231.664	536.8
232.043	542.8
232.422	541.2
232.801	536.4
233.181	549
233.56	535.2
233.94	536.2
234.319	531.6
234.699	527.8
235.079	569.2
235.458	570.4
235.838	547.4
236.218	528
236.598	525.6
236.978	527.2
237.358	533.2
237.738	535.4
238.119	539.8
238.499	529.2
238.88	536.4
239.26	544.6
239.641	530.6
240.021	536.6
240.402	543
240.783	537.2
241.163	535.2
241.544	541.2
241.925	538.4
242.306	545.6
242.687	534.4
243.069	545.6
243.45	548.6
243.831	534.4
244.212	531.4
244.594	573
244.975	542.8
245.357	546.4
245.739	536.8
246.12	538.8
246.502	543.8
246.884	538.8
247.266	537.8
247.648	538.2
248.03	566.4
248.412	540.6
248.794	544.4
249.176	522.6
249.559	546.4
249.941	539.4
250.323	526
250.706	533.4
251.089	535.4
251.471	537.2
251.854	541
252.237	539.4
252.62	542.4
253.002	535.4
253.385	538.4
253.769	550.4
254.152	534.8
254.535	544.2
254.918	535
255.301	535.6
255.685	534.6
256.068	521
256.452	556.4
256.835	539.6
257.219	537.6
257.603	536.2
257.986	527.2
258.37	540.4
258.754	518.8
259.138	540.2
259.522	547.2
259.906	534.6
260.29	541.2
260.675	530.6
261.059	538.8
261.443	527.2
261.828	550.6
262.212	536.4
262.597	524.4
262.981	540.4
263.366	549.2
263.751	536.2
264.136	527.6
264.521	537.6
264.906	530.4
265.291	544.8
265.676	536
266.061	545.2
266.446	547.8
266.831	534.8
267.217	548
267.602	543.2
267.987	537
268.373	530.2
268.759	537.4
269.144	536
269.53	541.8
269.916	537.6
270.302	535.2
270.688	536.4
271.074	538.6
271.46	546
271.846	558.4
272.232	544.8
272.618	532.8
273.004	533.6
273.391	543.4
273.777	546.2
274.164	533.4
274.55	542
274.937	535.2
275.324	540.6
275.71	537
276.097	541.2
276.484	530.6
276.871	540
277.258	538.2
277.645	525
278.032	537.2
278.419	537.8
278.807	545.2
279.194	526.4
279.581	529.4
279.969	539.6
280.356	534.2
280.744	531.4
281.131	559
281.519	547
281.907	534.4
282.295	538.6
282.682	547.2
283.07	533.6
283.458	541.2
283.846	550.2
284.235	549.4
284.623	547.4
285.011	535.6
285.399	540
285.788	533.8
286.176	530
286.565	542.8
286.953	536
287.342	531.2
287.731	525.6
288.119	532
288.508	525.8
288.897	538.6
289.286	519.4
289.675	538
290.064	544.2
290.453	535.8
290.821	535.8
291.21	549.2
291.599	538.2
291.989	538.2
292.378	540.2
292.768	552.4
293.157	549.2
293.547	540.6
293.936	536
294.326	535.4
294.716	543.8
295.106	538.8
295.496	544.4
295.886	545.2
296.276	536.4
296.666	533.6
297.056	530.2
297.446	522.4
297.836	555.4
298.227	535.4
298.617	532.6
299.008	543.8
299.398	535.2
299.789	534.2
300.179	540.4
300.57	554.4
300.961	535.8
301.352	534.2
301.742	546
302.133	549.8
302.524	542.8
302.915	537
303.307	531.8
303.698	547.2
304.089	544.8
304.48	535.4
304.872	542
305.263	536.4
305.655	537
306.046	541.8
306.438	539.2
306.829	532
307.221	553
307.613	544.6
308.005	546.6
308.397	551.8
308.789	550.4
309.181	558.8
309.573	550
309.965	547.2
310.357	538.2
310.749	555.6
311.142	530.8
311.534	532
311.926	537
312.319	533.4
312.711	527
313.104	550.2
313.497	533.8
313.889	570.8
314.282	552.6
314.675	552.6
315.068	546
315.461	543
315.854	556.8
316.247	532.8
316.64	542.8
317.033	530.2
317.405	540.2
317.798	538.4
318.192	543.6
318.585	534.8
318.979	540
319.372	529.2
319.766	533
320.16	544.4
320.553	546.8
320.947	556.8
321.341	537.8
321.735	528.8
322.129	529.2
322.523	555.2
322.917	535.2
323.311	543.8
323.705	540
324.099	536.6
324.494	548.6
324.888	539
325.282	540.8
325.677	550
326.071	553.4
326.466	548.2
326.861	547
327.255	551
327.65	551.4
328.045	553
328.44	544.8
328.835	537.8
329.23	539.4
329.625	556.6
330.02	537.6
330.415	563
330.81	547
331.206	541.6
331.601	535
331.996	543.4
332.37	564.2
332.766	528.4
333.161	564
333.557	534.4
333.953	539.2
334.348	804
334.744	532.8
335.14	534.2
335.536	530
335.932	550
336.328	536
336.724	546.8
337.12	540.8
337.516	540.2
337.913	541.2
338.309	541.6
338.705	535.2
339.102	548.2
339.498	534.4
339.895	551.4
340.291	529.6
340.688	542.8
341.085	532.6
341.481	542.6
341.878	529.4
342.275	555.6
342.672	528
343.069	534
343.466	524.6
343.842	541.4
344.239	530.2
344.636	535.2
345.033	524.8
345.431	529.8
345.828	532.2
346.225	527.4
346.623	560.4
347.02	540.2
347.418	536
347.816	547
348.213	522.8
348.611	540.8
349.009	535
349.407	543.6
349.805	525.6
350.203	524.2
350.601	541.4
350.999	527.6
351.397	580.8
351.795	532.4
352.193	542
352.57	541.6
352.969	544
353.367	520.2
353.766	523.2
354.164	531.2
354.563	538.8
354.961	534.8
355.36	526.2
355.759	517.2
356.158	530.2
356.557	526
356.956	524.8
357.355	525.4
357.754	538.6
358.153	532.8
358.552	551.6
358.951	524.6
359.35	531.8
359.75	529.8
360.149	520.6
360.527	520.6
360.926	520.6
361.326	533.8
361.726	530.4
362.125	523
362.525	537.6
362.925	537.8
363.325	527.8
363.724	540.6
364.124	530.6
364.524	523.8
364.924	526.8
365.324	538.8
365.725	517.4
366.125	531.4
366.525	520.4
366.904	523.2
367.304	512.6
367.705	552.6
368.105	540
368.506	530.8
368.906	532.2
369.307	532.8
369.708	532
370.108	518
370.509	535.2
370.91	525
371.311	526.6
371.712	536.4
372.113	524.6
372.514	517.4
372.894	520.2
373.295	521.6
373.696	541.4
374.097	530.2
374.499	546.4
374.9	530
375.301	523.8
375.703	536.2
376.105	531
376.506	534
376.908	532.4
377.309	531.4
377.711	529
378.113	527.2
378.493	533.8
378.895	528.2
379.297	536.2
379.699	521
380.102	534.4
380.504	533.6
380.906	525.4
381.308	551.2
381.71	519.2
382.113	538
382.515	524
382.918	529
383.299	525.2
383.701	537.4
384.104	530.2
384.507	515.8
384.909	521.2
385.312	521.8
385.715	519.8
386.118	530.8
386.521	515.2
386.924	539.2
387.327	524.8
387.709	518.2
388.112	517
388.515	530.8
388.918	535.2
389.322	536.4
389.725	528.8
390.129	536.8
390.532	537.2
390.936	526.4
391.339	517.8
391.743	528.6
392.125	522.2
392.529	543.6
392.933	533.4
393.337	528
393.74	528
394.144	523
394.548	518.8
394.953	528
395.357	530
395.761	513.2
396.144	525.8
396.548	533.8
396.952	525.2
397.357	528.6
397.761	525.2
398.166	527.2
398.57	522.6
398.975	526.4
399.379	533.4
399.763	574.8
400.168	534.2
400.572	530.6
400.977	519.4
401.382	552.4
401.787	533.8
402.192	539.6
402.597	535.8
403.002	518.8
403.386	540
403.791	542.6
404.197	518
404.602	529.2
405.007	529
405.413	521.2
405.818	530.4
406.224	520.6
406.608	532.4
407.014	526.6
407.42	538.6
407.825	524.4
408.231	533.4
408.637	530.4
409.043	540
409.449	530.8
409.834	521.2
410.24	534.2
410.646	537.8
411.052	534.2
411.458	528.6
411.865	531.6
412.271	529.2
412.677	524.6
413.062	537
413.469	521.4
413.875	544.8
414.282	531.8
414.689	533
415.095	535.2
415.502	526
415.888	529.8
416.294	516
416.701	564.4
417.108	526.8
417.515	532.2
417.923	529
418.33	549.8
418.715	544.2
419.123	525.2
419.53	528.8
419.937	530
420.345	539
420.752	518.8
421.16	543
421.546	519.2
421.953	531.6
422.361	519.4
422.769	529.6
423.177	524.4
423.585	545.8
423.992	544.2
424.379	533.2
424.787	541.2
425.195	539.4
425.603	527.6
426.011	536.6
426.419	538.2
426.806	540.6
427.214	540.8
427.623	536
428.031	534.4
428.44	540.6
428.848	539
429.235	547
429.644	529.4
430.053	531.8
430.461	548
430.87	555.4
431.279	534.6
431.666	534.4
432.075	523.8
432.484	542.2
432.893	522.2
433.302	537.6
433.711	563.8
434.099	535.4
434.508	529.8
434.918	528.6
435.327	531.2
435.737	525
436.125	531.6
436.534	531.2
436.944	533.2
437.353	527.8
437.763	543.6
438.173	526.8
438.561	537.4
438.971	519.2
439.381	528
439.791	529.4
440.201	515.2
440.589	524.8
440.999	530.6
441.409	530.4
441.819	516.6
442.23	532.2
442.619	525
443.029	527.8
443.439	527.6
443.85	539.6
444.26	532.6
444.649	534.8
445.06	527.6
445.471	527.4
445.881	527.6
446.292	538.8
446.682	544.6
447.092	522.8
447.503	575.8
447.914	537.6
448.325	531
448.715	530.2
449.126	516
449.537	527
449.948	523.8
450.338	524
450.75	535.6
451.161	526.2
451.572	526
451.984	516.6
452.374	506.8
452.786	527.6
453.197	526.2
453.609	528.4
453.999	506.4
454.411	516
454.823	533
455.235	522
455.647	518.2
456.037	525
456.449	516
456.862	525.6
457.274	517.2
457.665	513.6
458.077	530.2
458.489	552
458.902	524.4
459.293	527.4
459.705	522.4
460.118	527.2
460.53	527.8
460.921	536.6
461.334	525
461.747	520.6
462.16	536
462.551	539.4
462.964	526.4
463.377	515.8
463.79	519.8
464.182	527.2
464.595	511.4
465.008	528.2
465.421	522.4
465.813	522.6
466.226	526.6
466.64	519.6
467.053	560.8
467.445	530.6
467.859	532.8
468.272	518
468.686	533.8
469.078	520.4
469.492	512.2
469.906	522.2
470.298	527.8
470.712	517
471.126	538.8
471.54	510.6
471.933	517
472.347	516
472.761	518.2
473.175	514.2
473.568	520.8
473.982	517
474.397	520.8
474.79	524.6
475.204	529.6
475.619	520
476.033	524.4
476.426	526.2
476.841	519
477.256	543.2
477.649	521.4
478.064	514.8
478.479	509.2
478.872	507.4
479.287	505.2
479.702	513.8
480.118	517.8
480.511	516.4
480.927	522.2
481.342	514.2
481.736	520.4
482.151	522.6
482.566	518.4
482.96	519.4
483.376	532.8
483.792	516
484.186	520
484.602	517.4
485.017	526
485.412	520.6
485.827	519.8
486.243	524
486.638	538.6
487.054	532
487.47	527.4
487.865	517.2
488.281	515.2
488.697	510.4
489.092	510.4
489.508	515.2
489.925	530
490.32	515.2
490.736	525.8
491.153	522
491.548	523.4
491.964	535.6
492.381	511.2
492.776	524.6
493.193	518.4
493.61	521.6
494.006	516
494.422	529.6
494.84	516.8
495.235	529.4
495.652	528
496.069	519.4
496.465	510.6
496.883	522
497.3	537.6
497.696	508.6
498.113	519.6
498.509	512.8
498.927	509.4
499.344	513.4
499.741	507.4
500.158	524.2
500.576	528.6
500.973	520.8
501.39	514.6
501.787	510.6
502.205	517.8
502.623	513.2
503.02	507.2
503.438	507.4
503.856	522.6
504.253	514.8
504.671	524.6
505.068	511
505.486	518
505.905	532.8
506.302	522.2
506.72	530.8
507.118	505.6
507.536	516
507.955	518
508.352	516.6
508.771	528.2
509.169	522.2
509.587	511.2
510.006	513
510.404	504.8
510.823	512
511.221	517.2
511.64	516.8
512.038	528.6
512.457	518
512.877	514.4
513.275	515.6
513.694	511.2
514.092	518.2
514.512	514.6
514.91	522.8
515.33	510.2
515.749	513.6
516.148	519
516.568	516.6
516.966	515
517.386	518.6
517.785	510.6
518.205	515.8
518.603	512.4
519.024	502.2
519.444	519.8
519.843	532.8
520.263	528.4
520.662	525
521.082	522.6
521.481	522.8
521.902	513.4
522.301	521.4
522.722	520.8
523.121	522
523.542	520
523.963	519.4
524.362	516.6
524.783	517.8
525.183	517
525.604	530.4
526.003	513.4
526.425	513.6
526.824	519.8
527.246	525.4
527.646	529.8
528.067	516.4
528.467	516.2
528.888	509.6
529.289	514.2
529.71	521.6
530.11	507
530.532	516.4
530.932	513.6
531.354	515
531.755	539.4
532.176	519
532.577	521.6
532.999	513.8
533.4	514.4
533.822	521.8
534.223	522
534.645	524.2
535.046	520
535.468	515.8
535.869	535.2
536.292	513.6
536.693	543
537.115	523.8
537.516	511.8
537.939	509.2
538.34	528
538.742	522.8
539.165	528.4
539.566	515.2
539.989	511.2
540.391	510.6
540.814	513.4
541.216	511.8
541.639	518.4
542.041	520.8
542.464	513.8
542.866	508
543.268	511.8
543.691	517.8
544.093	524
544.517	540.8
544.919	512
545.343	529.8
545.745	511.4
546.147	521.8
546.571	513.4
546.974	508.6
547.398	517.4
547.8	524
548.224	508.6
548.627	507.8
549.03	518.8
549.454	505.4
549.857	503.6
550.281	504.8
550.684	513.2
551.087	515.8
551.512	516.8
551.915	517.2
552.34	519.4
552.743	512.2
553.146	514
553.571	504.4
553.975	526
554.399	501
554.803	552.2
555.207	515.4
555.632	509.4
556.036	515.8
556.461	502.8
556.865	515.8
557.268	506.2
557.694	512.8
558.098	517.8
558.502	516
558.927	508
559.332	517.6
559.736	504.4
560.162	517.4
560.566	502.8
560.992	515.4
561.396	512.6
561.801	514.2
562.227	512.8
562.631	513.4
563.036	508.8
563.462	520.2
563.867	517.8
564.272	496.8
564.698	524.2
565.103	499
565.508	523.4
565.935	509.4
566.34	509
566.745	531.6
567.172	503.8
567.577	536.6
567.982	521
568.409	515
568.815	503.4
569.22	507.8
569.626	525.4
570.053	502.6
570.459	505.2
570.865	520.8
571.292	521.4
571.698	517.6
572.104	511.8
572.531	511.4
572.937	529.2
573.343	510.8
573.75	511
574.177	521
574.583	524
574.99	512.2
575.396	510.6
575.824	507.6
576.231	509.8
576.637	510
577.065	539.8
577.472	505.4
577.879	514.6
578.286	534.2
578.714	509.8
579.121	516.6
579.528	510.4
579.935	516.6
580.364	506.4
580.771	499
581.178	508.4
581.585	508.4
582.014	515.4
582.421	513
582.829	513.2
583.236	520.2
583.644	509.8
584.073	517.8
584.481	512
584.889	513.2
585.296	523.8
585.726	519
586.134	504.4
586.542	506.6
586.95	522.8
587.358	508.8
587.787	517.8
588.196	505.4
588.604	504
589.012	516.2
589.421	509.2
589.851	505.8
590.259	517.8
590.668	508
591.076	545.2
591.485	503.2
591.894	514.2
592.324	525.2
592.733	517.4
593.142	499.4
593.551	508.6
593.96	523.4
594.369	506.8
594.8	507.6
595.209	508.8
595.618	497
596.028	512.6
596.437	515
596.847	514
597.256	516
597.687	513.2
598.097	515.6
598.507	506
598.917	516.2
599.327	515.2
599.736	519.8
600.146	521
600.556	516.2
600.988	523.8
601.398	510.2
601.808	514.4
602.219	507
602.629	516
603.039	511
603.45	541.4
603.86	515.8
604.271	523.4
604.703	516.2
605.114	515
605.525	512.6
605.935	514.8
606.346	534.2
606.757	515.2
607.168	507.6
607.579	507
607.99	525.6
608.402	513.8
608.813	508.4
609.224	512.8
609.636	498.8
610.047	506
610.48	518.4
610.892	518.6
611.303	516.6
611.715	512
612.127	513.8
612.539	518.6
612.95	516
613.362	515.6
613.774	518.6
614.186	513.4
614.599	516
615.011	527.2
615.423	527
615.835	511.2
616.248	515.6
616.66	520.4
617.073	506.2
617.485	519.6
617.898	525.8
618.311	523.4
618.723	524.2
619.136	547.2
619.549	536.8
619.962	543.2
620.375	518.8
620.788	529.4
621.201	520.2
621.614	525
622.028	519
622.441	530.6
622.854	538.4
623.268	524
623.681	525.6
624.095	525
624.509	532
624.922	521.6
625.336	523
625.728	517
626.142	531
626.556	542.6
626.97	529.4
627.384	519.8
627.799	526
628.213	535
628.627	518.4
629.041	516.2
629.456	517.4
629.87	525.4
630.285	530.2
630.699	522.6
631.093	517.4
631.507	533
631.922	535.8
632.337	529.6
632.752	522
633.167	535.2
633.582	522.6
633.997	520.6
634.412	521
634.806	525.8
635.221	511.8
635.637	536.2
636.052	518.4
636.468	524.4
636.883	538
637.299	527.4
637.715	515
638.109	523.6
638.525	517
638.941	524.8
639.357	523.6
639.773	524.6
640.189	513.4
640.584	516.8
641	516.6
641.416	513
641.832	526.4
642.249	517.2
642.665	522.4
643.06	514.6
643.477	530.4
643.894	508.4
644.31	516.8
644.727	520.2
645.123	518.2
645.54	507
645.957	510.4
646.374	527
646.77	512.8
647.187	535
647.604	511.8
648.021	508
648.439	512
648.835	519.6
649.252	510.6
649.67	519
650.088	511.2
650.484	520.2
650.902	516
651.32	505.4
651.738	515.8
652.134	519
652.552	531.2
652.971	520
653.389	515.6
653.786	524.8
654.204	520.8
654.622	514.8
655.019	519.2
655.438	521
655.857	526.8
656.275	521.2
656.673	510
657.091	517.2
657.51	498
657.908	520.8
658.327	519.8
658.746	513.2
659.144	509.4
659.563	525.2
659.982	507.2
660.38	502
660.8	513.6
661.219	521.8
661.617	516.8
662.037	510.2
662.457	520
662.855	506.2
663.275	540.8
663.695	505.4
664.094	509.8
664.514	517.2
664.934	509.2
665.333	511.6
665.753	504
666.152	503.8
666.572	503.6
666.993	520.8
667.392	505.4
667.812	510.6
668.212	510
668.632	515.6
669.053	504.4
669.453	511.8
669.874	518
670.273	512
670.694	509.6
671.116	519
671.515	514.4
671.937	508.6
672.337	509.4
672.758	506.8
673.158	509.8
673.58	506
673.98	514.8
674.402	514
674.824	508.2
675.224	506
675.646	498.4
676.047	503
676.469	504.2
676.869	521.8
677.292	515.8
677.693	502.8
678.115	506.2
678.516	513.2
678.939	508.6
679.34	508.8
679.762	514.6
680.164	517.4
680.586	497.6
680.988	506.4
681.411	528.2
681.812	508.8
682.236	506.8
682.637	495.2
683.061	502.4
683.462	514.6
683.864	502
684.288	510.6
684.69	511.4
685.114	517.4
685.516	516.8
685.94	500.4
686.342	517
686.766	500.8
687.168	505.6
687.571	518.4
687.995	509
688.398	503.2
688.822	512.4
689.225	528
689.628	521.6
690.052	502
690.456	519.6
690.88	510.6
691.284	505
691.687	511.6
692.112	497
692.515	498.8
692.919	508
693.344	514.2
693.747	506.2
694.173	499.8
694.577	513.6
694.98	512.2
695.406	502.8
695.81	519.6
696.214	508.4
696.64	513
697.044	508.4
697.448	512.8
697.874	499.8
698.279	507.2
698.684	506
699.11	505.8
699.514	506.6
699.919	500.2
700.324	501
700.75	509.6
701.156	516.4
701.561	503.8
701.987	502
702.393	510.8
702.798	511.2
703.203	509.2
703.63	499.6
704.036	508.2
704.442	506
704.847	498.8
705.274	506
705.68	509.8
706.086	508
706.492	495.2
706.92	507.6
707.326	506.4
707.732	503
708.139	501
708.545	497
708.973	500
709.38	502.6
709.786	491.4
710.193	519
710.6	507.2
711.028	503
711.435	508.2
711.842	502.2
712.249	498.2
712.656	505.8
713.064	504.8
713.492	502
713.9	507.4
714.307	500.2
714.715	501.6
715.123	509.8
715.53	507.6
715.938	519.8
716.367	500.8
716.775	506.6
717.184	501
717.592	505.6
718	516.4
718.408	533.2
718.816	539
719.225	501.4
719.633	510
720.042	501.6
720.472	503
720.881	520
721.29	513
721.699	502.6
722.108	509.2
722.517	505.6
722.926	504
723.335	514.4
723.744	498.8
724.154	504.8
724.563	505.6
724.973	514.4
725.382	505.6
725.792	507.6
726.202	497.4
726.612	513.4
727.022	507.8
727.432	501.2
779.813	505.6
780.223	542.4
780.634	499
781.044	501.4
781.454	510.6
781.865	518.8
782.276	495.6
782.686	508.8
783.097	511.6
783.508	502.8
783.919	510.4
784.33	515.6
784.741	517.2
785.152	505.2
785.563	499.4
785.974	495
786.386	510
786.776	500.4
787.188	498.6
787.599	497.6
788.011	513
788.423	502.8
788.835	491.4
789.247	505.2
789.659	503.6
790.071	498.6
790.483	538.6
790.874	500.6
791.286	520.2
791.699	494.6
792.111	502
792.524	500
792.937	493.2
793.349	487
793.741	493.6
794.154	497
794.567	524.6
794.98	496.8
795.393	488.8
795.785	505.4
796.198	494.8
796.612	500.6
797.026	500.2
797.439	489
797.831	500
798.245	492.6
798.659	496.6
799.073	494
799.487	500.8
799.88	503.2
800.294	494
800.708	501.2
801.123	501.4
801.516	517.8
801.93	490.8
802.345	498.8
802.76	510.4
803.153	507.6
803.568	512.6
803.983	510.4
804.377	498.8
804.792	493.2
805.207	488.4
805.601	502.2
806.016	523.6
806.432	495.8
806.826	519.8
807.242	508.2
807.658	505.2
808.052	498.4
808.468	494.2
808.884	498.6
809.279	501.6
809.695	514.2
810.111	520.6
810.506	494.8
810.922	515.8
811.339	489.4
811.734	506.8
812.151	494.4
812.546	496.8
812.963	499.4
813.38	505.4
813.776	503.4
814.193	517.8
814.589	486.4
815.006	498.8
815.402	494.4
815.82	494.6
816.237	501.8
816.633	507
817.051	496.2
817.448	502
817.866	494.6
818.262	514.8
818.68	503
819.077	495.2
819.495	493.8
819.892	533.4
820.311	492.4
820.708	498.2
821.127	497.4
821.524	497.6
821.943	494.2
822.34	526.8
822.759	501.4
823.157	499
823.576	513.8
823.974	504.2
824.393	563.2
824.791	489.6
825.189	498.2
825.609	491
826.007	497.2
826.427	480.6
826.826	510.6
827.246	509
827.644	480.4
828.043	507.6
828.463	496
828.862	505.2
829.261	497.4
829.682	491.8
830.081	506.4
830.502	499.8
830.901	508.4
831.301	499.6
831.722	497.6
832.121	502.6
832.521	491.4
832.943	501.2
833.342	500.8
833.742	497.8
834.164	505.4
834.564	490.6
834.965	504.4
835.386	493.2
835.787	503.6
836.188	501
836.588	501.6
837.01	502.6
837.411	490.4
837.812	505.4
838.213	493.8
838.636	498.2
839.037	561.4
839.438	507.2
839.84	502.8
840.263	502.2
840.664	505.6
841.066	493.6
841.468	508.8
841.891	494.8
842.293	503.6
842.695	502.8
843.098	506
843.5	499.4
843.902	505.6
844.326	511.8
844.729	505.6
845.131	509.4
845.534	502.8
845.937	512.4
846.34	521
846.764	495.8
847.167	506.2
847.571	500.4
847.974	499.8
848.377	499.4
848.781	539.6
849.184	510
849.588	497.4
849.992	499.6
850.396	500.4
850.821	510.4
851.225	499
851.63	493.8
852.034	502.4
852.438	501.4
852.843	553.6
853.247	494.2
853.652	491.2
854.057	513
854.462	505.6
854.867	500.4
855.272	533.2
855.677	505
856.082	498.2
856.487	499.8
856.893	493.8
857.298	499
857.704	497
858.11	502.6
858.516	506.6
858.922	497
859.328	504
859.734	500.2
860.14	507
860.525	504.6
860.931	495
861.338	499.6
861.745	504.8
862.151	503.6
862.558	497
862.965	489.8
863.372	500.8
863.779	496.4
864.186	520.8
864.572	504.6
864.98	515.2
865.387	527.4
865.795	498.2
866.203	515
866.61	493
867.018	505.8
867.405	505.6
867.813	500.8
868.221	499.6
868.63	504
869.038	504
869.425	536.6
869.834	496
870.243	499.6
870.652	495.4
871.039	498.2
871.448	496.6
871.857	507.2
872.266	502.2
872.654	502.2
873.064	494.2
873.473	507.4
873.883	502.8
874.271	498.2
874.681	506.4
875.091	496.6
875.48	510.4
875.89	515.2
876.3	504.4
876.689	488
877.1	499.2
877.51	503.6
877.9	518
878.31	493.6
878.721	530
879.111	507.6
879.522	499.4
879.933	497.6
880.323	495
880.734	496.2
881.125	491.8
881.536	500.2
881.948	491.2
882.338	501.4
882.75	501.6
883.141	491.4
883.553	505
883.944	521
884.356	507.8
884.769	496.8
885.16	496.8
885.573	493.6
885.964	489.8
886.377	498.8
886.768	491.4
887.181	495.8
887.573	491.6
887.987	498.2
888.378	506.4
888.792	501.4
889.184	535.6
889.598	492.8
889.99	499.8
890.383	491.2
890.797	484.2
891.19	506.6
891.604	492.4
891.997	478.4
892.411	489.2
892.805	488.8
893.198	491
893.613	486.2
894.006	497.6
894.421	488
894.815	493.4
895.209	488
895.624	529.4
896.018	515.6
896.412	497.8
896.828	492.8
897.222	494.4
897.617	497
898.033	513.4
898.427	496.4
898.822	500.8
899.239	489.4
899.634	486.2
900.029	513.4
900.424	490.8
900.841	484.2
901.236	510.8
901.632	499
902.027	546
902.445	505.2
902.841	497.8
903.237	490
903.633	501.2
904.05	504.6
904.447	496.6
904.843	502.8
905.24	495.2
905.636	487.8
906.033	491.2
906.451	508.6
906.848	488.2
907.246	492.2
907.643	496.8
908.04	498.6
908.438	511.8
908.835	498.2
909.254	493.2
909.652	496.4
910.05	493.8
910.448	492
910.846	499.4
911.244	486
911.643	493.4
912.041	497.8
912.44	515.2
912.839	491.6
913.237	499.2
913.636	497.2
914.035	503.2
914.434	492.6
914.834	508.6
915.233	505.2
915.633	501.4
916.032	490
916.432	496.4
916.832	509.8
917.232	495
917.632	491.6
918.032	492.6
918.432	499.6
918.833	493.4
919.233	496
919.634	491.4
920.035	507.4
920.436	493.2
920.837	499.4
921.238	492.4
921.639	493.2
922.019	495.2
922.42	494
922.822	504.8
923.224	499.8
923.625	495.8
924.027	495
924.429	508
924.81	494.6
925.212	501.2
925.615	492.8
926.017	496.6
926.42	510.6
926.801	495.6
927.204	494.6
927.607	500.6
928.01	510.2
928.413	499.4
928.795	488.8
929.199	495.6
929.602	494
930.006	499
930.388	488.6
930.792	509.6
931.196	491.8
931.579	516.2
931.983	488
932.388	538.6
932.771	498.4
933.176	489.6
933.58	493.2
933.964	496.2
934.369	486.6
934.774	495.8
935.158	502.8
935.563	497.4
935.947	490.6
936.353	501
936.759	498.2
937.143	505.8
937.549	499
937.934	510
938.34	512.2
938.746	490.6
939.131	497.2
939.538	490.8
939.923	510
940.33	493
940.716	499.2
941.123	502.4
941.508	503
941.916	504.4
942.302	506
942.709	484
943.096	489.8
943.503	503.4
943.89	497.8
944.298	488.8
944.685	511.8
945.072	487
945.48	496.8
945.867	487
946.276	488.2
946.663	509.8
947.051	504.4
947.46	499.8
947.848	504.4
948.257	490
948.645	497.8
949.033	483.2
949.443	486
949.831	521.6
950.22	490
950.63	507.6
951.018	522
951.407	500.4
951.796	485
952.207	495.4
952.596	502.4
952.985	495
953.375	529.8
953.786	484.6
954.176	494
954.566	501.6
954.956	487.2
955.367	490.2
955.758	511.8
956.148	493
956.539	502
956.929	489.8
957.341	486.6
957.732	496.8
958.123	495
958.515	486.6
958.906	491.8
959.297	488.2
959.689	497.2
960.102	488.2
960.494	492.2
960.886	497
961.278	493.2
961.67	514
962.062	521.6
962.455	494.4
962.847	486
963.24	492.4
963.633	496.6
964.026	493.4
964.419	497.6
964.812	498.2
965.206	490.8
965.599	496.8
965.993	495.2
966.386	496
966.78	504.6
967.174	502.6
967.569	493.8
967.963	484.8
968.357	495
968.752	496.8
969.146	492.4
969.541	498
969.936	497.8
970.331	502.6
970.705	493.4
971.1	489.2
971.496	500
971.892	490.4
972.287	489.4
972.683	489.6
973.079	493.8
973.454	510
973.85	496.8
974.247	498.4
974.643	522.8
975.04	493.6
975.415	490.2
975.812	482.8
976.209	498
976.607	490.4
976.982	505
977.38	509
977.778	490.8
978.175	496.6
978.552	495.8
978.95	501.6
979.348	506.2
979.725	532
980.123	492.6
980.522	491.8
980.899	487
981.298	487.2
981.697	504.6
982.075	486.2
982.474	484
982.852	490.2
983.251	495.2
983.651	491.8
984.029	492
984.429	493.4
984.808	481.6
985.208	485.6
985.609	488.8
985.987	486.6
986.388	495.4
986.768	490.2
987.168	489.2
987.548	494.8
987.949	503
988.329	502
988.731	483
989.111	494.6
989.491	493.8
989.893	491.6
990.273	506.8
990.676	486.4
991.057	488.6
991.459	493
991.84	494
992.221	487.8
992.624	515.2
993.006	486.8
993.388	494
993.791	505.4
994.173	490.8
994.576	520.2
994.959	485.8
995.341	490.6
995.724	498.2
996.128	493.2
996.511	494.8
996.894	495
997.298	483.2
997.681	497.6
998.065	496
998.448	487.2
998.854	496.6
999.237	477.6
999.621	507.4
1000.01	502
1000.39	488.6
1000.8	487.8
1001.18	500.6
1001.56	491.8
1001.95	499
1002.33	495.6
1002.72	491.8
1003.13	492
1003.51	489.6
1003.9	489.6
1004.28	502.2
1004.67	493.8
1005.06	499.2
1005.44	521.2
1005.83	486.8
1006.21	491.4
1006.6	489.8
1006.99	504.8
1007.37	493.6
1007.76	485.4
1060.12	480
1060.51	480.2
1060.89	498.4
1061.28	497.8
1061.67	502.2
1062.06	496.6
1062.45	493.2
1062.83	487
1063.22	491.8
1063.61	521.2
1064	504.6
1064.39	493.4
1064.78	493.8
1065.14	504.2
1065.53	490.2
1065.92	488
1066.31	491.6
1066.7	503
1067.09	500.2
1067.46	496.8
1067.85	495.4
1068.24	493.4
1068.63	488.2
1069.02	497
1069.39	501.8
1069.78	498.8
1070.17	498.6
1070.57	485
1070.93	491
1071.33	491.6
1071.72	494.6
1072.11	486
1072.48	488.4
1072.87	495.4
1073.26	488.6
1073.64	489.4
1074.03	483
1074.4	487.6
1074.79	488.8
1075.19	498.4
1075.56	487
1075.95	498.6
1076.34	497.8
1076.72	483.2
1077.11	500.2
1077.48	505.2
1077.88	495.6
1078.25	488.4
1078.64	499.6
1079.02	495.6
1079.41	501
1079.78	493
1080.18	484.4
1080.55	544.6
1080.95	491.6
1081.32	487
1081.72	497.4
1082.09	494.6
1082.49	486.8
1082.86	497.6
1083.24	482.8
1083.63	486.8
1084.01	488.8
1084.38	502.4
1084.78	485
1085.16	497.8
1085.55	505.2
1085.93	506.2
1086.31	490
1086.7	518.6
1087.08	492.2
1087.46	497.8
1087.83	485.6
1088.23	504.6
1088.61	494.2
1088.99	489.8
1089.36	485
1089.76	489.4
1090.14	494.6
1090.52	486.8
1090.9	486.8
1091.27	501.6
1091.67	510
1092.05	496.2
1092.43	487
1092.81	495.6
1093.19	497
1093.57	485.6
1093.95	478.2
1094.35	493.2
1094.73	500.6
1095.11	484.6
1095.49	489.2
1095.87	481.4
1096.25	504
1096.63	497.8
1097.01	490
1097.39	497.8
1097.77	492.2
1098.15	487.8
1098.53	489.6
1098.91	488.8
1099.29	488
1099.68	511.4
1100.06	495.2
1100.44	499.4
1100.82	493.8
1101.18	501
1101.56	491.2
1101.95	487
1102.33	495.6
1102.71	495.4
1103.1	491.6
1103.48	479.6
1103.86	486.2
1104.22	492
1104.61	495.2
1104.99	484.6
1105.38	479.6
1105.76	496.8
1106.12	492.4
1106.51	521.8
1106.89	500
1107.26	492.8
1107.64	505.2
1108.03	486.6
1108.41	483.8
1108.78	491.6
1109.16	491.8
1109.55	498.4
1109.91	481.2
1110.3	482.6
1110.69	502.6
1111.05	489
1111.44	486
1111.8	489.8
1112.19	490
1112.58	497
1112.94	492.2
1113.33	488.2
1113.7	490.6
1114.09	486.2
1114.45	489.2
1114.84	485.4
1115.21	499.2
1115.6	486.6
1115.96	489.6
1116.35	495
1116.72	490.4
1117.11	497
1117.48	484.8
1117.85	484.8
1118.24	503
1118.6	494.2
1118.99	486.2
1119.36	500.8
1119.73	491.2
1120.12	490
1120.49	484.2
1120.86	511.2
1121.25	492.8
1121.62	487.6
1121.99	485.4
1122.38	506.2
1122.76	490.4
1123.13	484.8
1123.5	487.4
1123.89	497.2
1124.26	481.4
1124.63	487.6
1125	481.6
1125.4	476.4
1125.77	483.6
1126.14	472
1126.51	487.4
1126.88	496.6
1127.26	488.4
1127.63	482.6
1128.02	487
1128.4	478.8
1128.77	484.8
1129.14	488
1129.52	485.2
1129.89	489.6
1130.26	486.2
1130.64	480.4
1131.01	485.2
