#lambda/nm	C1
208.295	470.8
208.67	433.6
209.045	398.8
209.419	401.8
209.794	538.2
210.169	519.8
210.544	631.4
210.919	540.8
211.295	530.2
211.67	540.6
212.045	538
212.421	533
212.796	566.4
213.172	529.4
213.547	531.2
213.923	532.2
214.299	540.4
214.675	547.4
215.051	543.2
215.427	545.6
215.803	548.8
216.179	547.6
216.555	531.4
216.932	551.6
217.308	539.8
217.684	536.6
218.061	535.8
218.438	546.4
218.814	534
219.191	544.2
219.568	533.4
219.945	547.4
220.322	544.4
220.699	541.4
221.076	537.8
221.453	538.4
221.83	533.2
222.208	533.2
222.585	530.2
222.962	538.2
223.34	545.4
223.717	536.6
224.095	532
224.473	540.2
224.851	529.4
225.229	529.2
225.607	550.8
225.985	526.2
226.363	539.8
226.741	545.2
227.119	534.4
227.497	546.8
227.876	532.6
228.254	539.2
228.633	542.2
229.011	537
229.39	533.6
229.769	538.4
230.148	536.8
230.527	547
230.905	533
231.284	535.4
231.664	532.6
232.043	552
232.422	537.2
232.801	528.4
233.181	527.2
233.56	527.8
233.94	531.2
234.319	526.4
234.699	533
235.079	565.8
235.458	564
235.838	540.6
236.218	527.2
236.598	522.8
236.978	527.6
237.358	529.4
237.738	531.8
238.119	549.4
238.499	527.8
238.88	532.4
239.26	545.2
239.641	523.4
240.021	532.4
240.402	531.8
240.783	542.8
241.163	539.8
241.544	534.2
241.925	544.4
242.306	545.2
242.687	529.4
243.069	536.4
243.45	544.8
243.831	527.6
244.212	538.8
244.594	565.6
244.975	541
245.357	543.6
245.739	535.4
246.12	540
246.502	552.2
246.884	544.8
247.266	539.8
247.648	541.8
248.03	556
248.412	535.6
248.794	543.4
249.176	535.4
249.559	544.8
249.941	536.6
250.323	532.8
250.706	531.6
251.089	532.2
251.471	540.6
251.854	540.2
252.237	539.8
252.62	552.2
253.002	544.4
253.385	529.2
253.769	549.2
254.152	537
254.535	545
254.918	535.2
255.301	539.2
255.685	531
256.068	532.4
256.452	551
256.835	547.4
257.219	539.4
257.603	547.4
257.986	525.2
258.37	533.4
258.754	522.2
259.138	544.2
259.522	548.6
259.906	538
260.29	544.2
260.675	529
261.059	538.8
261.443	527.8
261.828	548
262.212	537.6
262.597	523.4
262.981	530.2
263.366	532.8
263.751	538
264.136	534.2
264.521	532.2
264.906	530.2
265.291	538.8
265.676	526
266.061	542.4
266.446	555.4
266.831	542.8
267.217	558
267.602	538.8
267.987	532.8
268.373	535
268.759	543.6
269.144	539.8
269.53	539.4
269.916	532.6
270.302	532.4
270.688	539.6
271.074	536.2
271.46	542.2
271.846	562.4
272.232	534
272.618	537.8
273.004	535.2
273.391	547.2
273.777	546.2
274.164	542.2
274.55	554
274.937	536.4
275.324	537
275.71	545.2
276.097	545
276.484	530.8
276.871	533.2
277.258	533
277.645	528.2
278.032	536.8
278.419	538.6
278.807	535.8
279.194	528.2
279.581	535
279.969	541
280.356	539.6
280.744	539.8
281.131	558.8
281.519	548.8
281.907	533.2
282.295	532
282.682	548.8
283.07	544.2
283.458	545
283.846	549
284.235	543.8
284.623	543.2
285.011	526.6
285.399	538.4
285.788	536.2
286.176	527.8
286.565	551.8
286.953	526.6
287.342	531.4
287.731	527.6
288.119	522.8
288.508	538.8
288.897	535.6
289.286	517.6
289.675	539.6
290.064	545.8
290.453	534.8
290.821	536.4
291.21	542.2
291.599	527.2
291.989	529.8
292.378	535
292.768	548
293.157	533.6
293.547	542.4
293.936	545.6
294.326	528
294.716	537.6
295.106	534.4
295.496	539.8
295.886	552.2
296.276	540.2
296.666	539.4
297.056	526.6
297.446	524.8
297.836	548.8
298.227	527
298.617	533.4
299.008	543.4
299.398	531.4
299.789	537.2
300.179	540.4
300.57	547.6
300.961	529.2
301.352	533.2
301.742	547.2
302.133	533
302.524	535.6
302.915	534.2
303.307	531
303.698	546.6
304.089	536.8
304.48	533.8
304.872	534.2
305.263	541.4
305.655	536
306.046	545
306.438	541
306.829	540.6
307.221	546.8
307.613	548.6
308.005	540.4
308.397	550.6
308.789	552.6
309.181	559.8
309.573	554
309.965	549.2
310.357	541
310.749	548.4
311.142	524.6
311.534	532.8
311.926	537.8
312.319	531.4
312.711	529.8
313.104	551.6
313.497	536.4
313.889	571
314.282	546.6
314.675	561.2
315.068	541.8
315.461	540.4
315.854	562.6
316.247	549.8
316.64	535.6
317.033	539.8
317.405	536.2
317.798	538.6
318.192	547.4
318.585	524.6
318.979	541.4
319.372	529.6
319.766	537.6
320.16	550.2
320.553	543.2
320.947	550.2
321.341	534.6
321.735	537.4
322.129	526
322.523	550
322.917	536.6
323.311	556.6
323.705	545.6
324.099	553.8
324.494	552.6
324.888	548
325.282	533.4
325.677	550.2
326.071	545.2
326.466	542
326.861	546.8
327.255	555.4
327.65	546
328.045	550
328.44	533.8
328.835	537.4
329.23	531
329.625	553.4
330.02	527.4
330.415	557
330.81	539
331.206	529.4
331.601	528.6
331.996	543.6
332.37	551.8
332.766	526.2
333.161	555
333.557	536
333.953	534
334.348	886.4
334.744	532.6
335.14	527.6
335.536	535.2
335.932	543.2
336.328	532.8
336.724	543.6
337.12	535
337.516	537.2
337.913	532.8
338.309	550
338.705	533.6
339.102	546.6
339.498	538.4
339.895	541.8
340.291	533.4
340.688	544.2
341.085	528
341.481	536.4
341.878	536.4
342.275	551.2
342.672	523.2
343.069	536.4
343.466	527.8
343.842	541.8
344.239	528
344.636	530.8
345.033	534.8
345.431	532.4
345.828	532.2
346.225	535
346.623	567
347.02	541.2
347.418	538
347.816	550
348.213	520.8
348.611	541.2
349.009	530.2
349.407	546.8
349.805	522.2
350.203	526
350.601	545.2
350.999	534
351.397	584.4
351.795	535.2
352.193	543.6
352.57	542.2
352.969	544
353.367	527.6
353.766	528.2
354.164	528.4
354.563	538.8
354.961	533
355.36	530.4
355.759	536.6
356.158	524.4
356.557	524.8
356.956	526.8
357.355	534.2
357.754	538.8
358.153	536.4
358.552	551
358.951	532.4
359.35	543.2
359.75	528.2
360.149	524.6
360.527	528.6
360.926	518.2
361.326	534.2
361.726	539.2
362.125	537.6
362.525	534.8
362.925	528
363.325	537.4
363.724	529.6
364.124	520
364.524	521
364.924	528
365.324	538
365.725	515.2
366.125	534.2
366.525	530.8
366.904	526
367.304	519.2
367.705	547.2
368.105	541
368.506	524.6
368.906	531.2
369.307	534.2
369.708	535.4
370.108	515.8
370.509	530.4
370.91	518
371.311	524
371.712	519.8
372.113	520.8
372.514	513.8
372.894	519.4
373.295	524.4
373.696	535.2
374.097	533.6
374.499	554.4
374.9	530.8
375.301	521
375.703	532.2
376.105	521
376.506	526.2
376.908	531.8
377.309	530
377.711	530.8
378.113	528.8
378.493	532.4
378.895	524.8
379.297	538
379.699	520
380.102	533
380.504	525
380.906	524
381.308	550
381.71	522.4
382.113	537.6
382.515	524.6
382.918	532.8
383.299	528.4
383.701	539
384.104	526.2
384.507	517.6
384.909	522.6
385.312	521.2
385.715	520.6
386.118	529.2
386.521	515.8
386.924	535.4
387.327	518
387.709	522
388.112	520.8
388.515	523.6
388.918	533.8
389.322	524.6
389.725	521.4
390.129	542.4
390.532	534
390.936	525.4
391.339	517.8
391.743	527.8
392.125	521.2
392.529	535.8
392.933	531.4
393.337	532.4
393.74	524.2
394.144	525.6
394.548	521.6
394.953	518.2
395.357	527.2
395.761	526.8
396.144	532.2
396.548	526
396.952	531
397.357	529
397.761	521.6
398.166	526.6
398.57	526
398.975	518
399.379	516.6
399.763	566.4
400.168	527.2
400.572	524.8
400.977	525
401.382	539.8
401.787	537.6
402.192	545.6
402.597	533.6
403.002	522.8
403.386	540.6
403.791	544.4
404.197	521.8
404.602	527.2
405.007	530.8
405.413	524.6
405.818	533
406.224	522.4
406.608	526.8
407.014	524.4
407.42	535
407.825	521.2
408.231	530.6
408.637	527.4
409.043	538
409.449	519.2
409.834	519
410.24	530
410.646	534.6
411.052	536
411.458	532.4
411.865	540.2
412.271	539.2
412.677	535
413.062	537.8
413.469	518.2
413.875	549
414.282	537
414.689	530.6
415.095	537.8
415.502	524.4
415.888	530.6
416.294	521
416.701	565.4
417.108	525.4
417.515	534
417.923	529.4
418.33	546.2
418.715	526.8
419.123	524.2
419.53	521
419.937	528.8
420.345	542.2
420.752	531.8
421.16	543.6
421.546	526
421.953	537.2
422.361	518.2
422.769	528.6
423.177	532.4
423.585	552.4
423.992	547.2
424.379	534.8
424.787	535.4
425.195	539.4
425.603	525.2
426.011	535.4
426.419	531.8
426.806	522.2
427.214	535.4
427.623	538.6
428.031	542.4
428.44	529.6
428.848	536.4
429.235	540
429.644	527.6
430.053	528.2
430.461	535.4
430.87	547.8
431.279	527.4
431.666	523.6
432.075	527.8
432.484	528.4
432.893	525
433.302	534.6
433.711	559.4
434.099	536.2
434.508	526.6
434.918	513.8
435.327	529.8
435.737	525.8
436.125	527
436.534	537
436.944	528.2
437.353	536.2
437.763	548.6
438.173	517.4
438.561	539.8
438.971	511
439.381	523
439.791	537.4
440.201	498.4
440.589	529.6
440.999	536.8
441.409	527.8
441.819	520.6
442.23	536.8
442.619	534.2
443.029	531
443.439	523.2
443.85	538.4
444.26	539.6
444.649	536.8
445.06	525.6
445.471	525
445.881	534.4
446.292	538.4
446.682	548.8
447.092	515.4
447.503	568.8
447.914	528.8
448.325	529.4
448.715	527.6
449.126	516.8
449.537	536.2
449.948	526.2
450.338	526.6
450.75	527.4
451.161	531.4
451.572	533.8
451.984	508.2
452.374	515.6
452.786	530.4
453.197	527.4
453.609	526
453.999	515
454.411	521.2
454.823	540.8
455.235	523.6
455.647	525.4
456.037	531.2
456.449	519.6
456.862	523.6
457.274	524.2
457.665	518.6
458.077	530.6
458.489	542.8
458.902	525.4
459.293	525.6
459.705	525
460.118	520.8
460.53	523.4
460.921	527.8
461.334	535.8
461.747	525.4
462.16	533.4
462.551	531.2
462.964	526.8
463.377	512
463.79	522
464.182	535.8
464.595	525.4
465.008	530.2
465.421	536.8
465.813	522
466.226	536.2
466.64	520.6
467.053	557.2
467.445	526.8
467.859	536
468.272	528.6
468.686	535.4
469.078	521
469.492	515.8
469.906	526.4
470.298	531.6
470.712	518.6
471.126	540.2
471.54	509.6
471.933	519
472.347	524
472.761	514.2
473.175	511.4
473.568	522.4
473.982	513
474.397	520.8
474.79	517.6
475.204	529
475.619	522
476.033	528.2
476.426	525.6
476.841	516.6
477.256	542.4
477.649	513.4
478.064	516
478.479	513.2
478.872	509.6
479.287	506.2
479.702	511.4
480.118	515.4
480.511	517.4
480.927	523.2
481.342	518.8
481.736	521.2
482.151	509.6
482.566	527
482.96	528.2
483.376	532.6
483.792	519
484.186	519.8
484.602	515.6
485.017	519.8
485.412	514
485.827	522.8
486.243	518.4
486.638	533.4
487.054	524.8
487.47	538
487.865	511.4
488.281	514
488.697	514.6
489.092	517.2
489.508	515.2
489.925	524.8
490.32	514.2
490.736	521.8
491.153	521.6
491.548	521.4
491.964	525.6
492.381	509
492.776	521.8
493.193	522.8
493.61	521
494.006	518
494.422	526.6
494.84	515.6
495.235	522.6
495.652	519.6
496.069	517.6
496.465	510.2
496.883	523.8
497.3	531.6
497.696	519.8
498.113	531.2
498.509	512.2
498.927	516
499.344	508.8
499.741	520.6
500.158	520
500.576	530.8
500.973	516
501.39	506.2
501.787	514.6
502.205	519
502.623	523.2
503.02	515.6
503.438	518.2
503.856	518.8
504.253	520.6
504.671	516.2
505.068	518.2
505.486	521.8
505.905	530.2
506.302	516.2
506.72	526.4
507.118	515.8
507.536	518
507.955	513.6
508.352	517.8
508.771	520.4
509.169	522.4
509.587	514
510.006	516
510.404	513
510.823	513.8
511.221	521.2
511.64	519
512.038	533.6
512.457	514
512.877	516.6
513.275	517.6
513.694	508.4
514.092	513.8
514.512	525.8
514.91	522.8
515.33	515.8
515.749	522
516.148	521
516.568	521.6
516.966	518
517.386	514.8
517.785	513
518.205	518.2
518.603	518.8
519.024	510
519.444	512.6
519.843	524.8
520.263	520.4
520.662	517.2
521.082	515.8
521.481	516.6
521.902	509.4
522.301	518.2
522.722	520.6
523.121	510.4
523.542	514
523.963	509
524.362	515
524.783	526.8
525.183	508.2
525.604	515.2
526.003	507
526.425	511.6
526.824	515
527.246	519
527.646	514.2
528.067	521.6
528.467	514.2
528.888	517.2
529.289	506
529.71	513.2
530.11	510.8
530.532	515.6
530.932	505.6
531.354	512.6
531.755	535.6
532.176	523
532.577	508
532.999	521.4
533.4	513
533.822	523.2
534.223	522
534.645	511.8
535.046	509
535.468	518
535.869	524.8
536.292	509.2
536.693	541
537.115	520.6
537.516	504.8
537.939	515
538.34	525.6
538.742	528.6
539.165	519.4
539.566	516.8
539.989	509.2
540.391	516
540.814	516.6
541.216	519.2
541.639	512.8
542.041	527
542.464	512.8
542.866	508
543.268	509
543.691	511.6
544.093	517.2
544.517	532.6
544.919	513
545.343	536.4
545.745	508.8
546.147	509.8
546.571	512.8
546.974	508.8
547.398	511.6
547.8	526.6
548.224	517.4
548.627	502.2
549.03	526
549.454	506
549.857	509.2
550.281	509.6
550.684	513.2
551.087	520.6
551.512	515.4
551.915	521.4
552.34	518.4
552.743	515.8
553.146	517.6
553.571	513.8
553.975	530.4
554.399	510.2
554.803	551.8
555.207	523.2
555.632	515.8
556.036	524.8
556.461	509.2
556.865	516.6
557.268	506.4
557.694	511
558.098	509.6
558.502	512.6
558.927	514.4
559.332	517
559.736	512.8
560.162	511.8
560.566	520
560.992	518
561.396	521
561.801	508.8
562.227	513.6
562.631	509.4
563.036	517.8
563.462	522.8
563.867	520.8
564.272	505.4
564.698	515.2
565.103	501.6
565.508	527
565.935	510.6
566.34	506.6
566.745	515
567.172	505.4
567.577	524
567.982	521
568.409	512.8
568.815	504
569.22	515.4
569.626	519.2
570.053	502.2
570.459	518
570.865	517.6
571.292	517.2
571.698	515
572.104	507.6
572.531	508.2
572.937	520.4
573.343	508.2
573.75	511.6
574.177	514.4
574.583	511
574.99	516.2
575.396	518.6
575.824	510.2
576.231	516.8
576.637	513.2
577.065	533
577.472	505.8
577.879	509.6
578.286	525.8
578.714	504.4
579.121	505.2
579.528	517.4
579.935	518
580.364	506.6
580.771	499.2
581.178	517.4
581.585	514.4
582.014	511.4
582.421	506
582.829	511.6
583.236	515.6
583.644	497.4
584.073	506.8
584.481	519.4
584.889	508.8
585.296	512.6
585.726	505
586.134	500
586.542	497.6
586.95	531.6
587.358	502
587.787	505.2
588.196	507.8
588.604	509.6
589.012	516.2
589.421	513.8
589.851	501.4
590.259	515.4
590.668	506
591.076	538
591.485	500.2
591.894	518.2
592.324	523.2
592.733	526.4
593.142	501.6
593.551	511.2
593.96	518.2
594.369	497.2
594.8	506.6
595.209	510.4
595.618	499
596.028	512
596.437	506.8
596.847	517.2
597.256	522.8
597.687	518.6
598.097	512.2
598.507	505.4
598.917	522
599.327	519.4
599.736	509.6
600.146	523.6
600.556	515.4
600.988	523
601.398	517.8
601.808	531.6
602.219	495.4
602.629	518.6
603.039	520
603.45	532.6
603.86	514.4
604.271	528.6
604.703	513.8
605.114	515.6
605.525	516.8
605.935	526.6
606.346	535.6
606.757	531.4
607.168	513.6
607.579	520.8
607.99	532
608.402	522.2
608.813	522.4
609.224	518.6
609.636	519
610.047	517.4
610.48	526.6
610.892	534.8
611.303	538
611.715	526
612.127	519.8
612.539	528.8
612.95	533.8
613.362	513.4
613.774	522.2
614.186	522.8
614.599	527
615.011	535.6
615.423	531
615.835	528.6
616.248	533
616.66	534.2
617.073	522.4
617.485	525.8
617.898	536.4
618.311	531.4
618.723	528.6
619.136	557.2
619.549	537
619.962	553.4
620.375	530.6
620.788	531.8
621.201	532
621.614	542
622.028	531.4
622.441	538.4
622.854	542.8
623.268	533.8
623.681	536.4
624.095	537.2
624.509	528.6
624.922	540.4
625.336	528.2
625.728	543.2
626.142	540
626.556	556
626.97	538.2
627.384	534
627.799	539.6
628.213	545.4
628.627	531.2
629.041	531.6
629.456	542
629.87	541.2
630.285	543
630.699	540.8
631.093	526.6
631.507	545.2
631.922	538.6
632.337	548
632.752	532.2
633.167	535
633.582	530.8
633.997	531.4
634.412	536.4
634.806	542
635.221	534.4
635.637	543.8
636.052	530.8
636.468	542.8
636.883	549.6
637.299	530.4
637.715	518.6
638.109	538.4
638.525	523
638.941	541.8
639.357	544.4
639.773	540.6
640.189	528
640.584	531.8
641	528.2
641.416	525
641.832	528.4
642.249	529.8
642.665	531.4
643.06	541.8
643.477	538.2
643.894	517.4
644.31	530.8
644.727	519
645.123	523.6
645.54	522
645.957	520.2
646.374	539
646.77	519.8
647.187	550.8
647.604	522.2
648.021	520.4
648.439	519
648.835	525.6
649.252	525
649.67	523.8
650.088	524.8
650.484	524.2
650.902	532.8
651.32	527.8
651.738	514.6
652.134	527.2
652.552	531.4
652.971	533.8
653.389	520.8
653.786	532.8
654.204	531.8
654.622	517.8
655.019	522
655.438	522.2
655.857	518.4
656.275	517
656.673	516.8
657.091	534.4
657.51	509.2
657.908	525.6
658.327	526.8
658.746	510.6
659.144	515.8
659.563	526.6
659.982	521.6
660.38	508
660.8	519.6
661.219	524
661.617	517
662.037	517
662.457	523.8
662.855	496.8
663.275	536.4
663.695	512.8
664.094	510.2
664.514	512
664.934	508.8
665.333	523.4
665.753	509.4
666.152	512.8
666.572	508.2
666.993	520.2
667.392	510
667.812	509.4
668.212	500.6
668.632	515
669.053	503.2
669.453	518.8
669.874	512
670.273	520.6
670.694	512.4
671.116	521.6
671.515	512.8
671.937	507.6
672.337	502.6
672.758	511.2
673.158	513.6
673.58	508.6
673.98	512
674.402	518.6
674.824	508.8
675.224	505.8
675.646	502.8
676.047	505
676.469	517
676.869	513.8
677.292	511.2
677.693	493.4
678.115	504
678.516	519.2
678.939	514.2
679.34	514.8
679.762	529
680.164	510.4
680.586	503.6
680.988	506.2
681.411	528.6
681.812	505
682.236	507.2
682.637	505.6
683.061	502.4
683.462	501.2
683.864	506
684.288	506.6
684.69	501.4
685.114	521.8
685.516	514.4
685.94	503.8
686.342	515.8
686.766	502.6
687.168	506.6
687.571	523.6
687.995	499.2
688.398	501.6
688.822	507.2
689.225	517
689.628	520.4
690.052	513.6
690.456	510.2
690.88	501.8
691.284	500
691.687	514.4
692.112	498.6
692.515	500.8
692.919	507.2
693.344	505.2
693.747	507.8
694.173	503.6
694.577	518.4
694.98	510.2
695.406	506.2
695.81	510.4
696.214	514.4
696.64	513.8
697.044	507.8
697.448	517.2
697.874	504.2
698.279	508.8
698.684	503
699.11	503
699.514	504.6
699.919	506
700.324	494
700.75	508.4
701.156	511.2
701.561	512
701.987	512.8
702.393	524.8
702.798	515.2
703.203	507.8
703.63	506.6
704.036	509.6
704.442	508
704.847	498.8
705.274	501.6
705.68	506.6
706.086	509.8
706.492	491.6
706.92	510.4
707.326	511.6
707.732	504.2
708.139	502
708.545	493.6
708.973	497.6
709.38	506
709.786	501.6
710.193	531.2
710.6	505.6
711.028	501.2
711.435	501.2
711.842	509.8
712.249	501.8
712.656	507.4
713.064	509.6
713.492	503
713.9	501.8
714.307	506.2
714.715	503
715.123	507.6
715.53	507.6
715.938	508.6
716.367	505
716.775	504
717.184	493.6
717.592	497.4
718	513.2
718.408	523.6
718.816	544.4
719.225	507.4
719.633	503.6
720.042	497.8
720.472	503.2
720.881	516.4
721.29	501
721.699	492.2
722.108	497.2
722.517	502.8
722.926	495.8
723.335	505.2
723.744	493.2
724.154	501.6
724.563	499
724.973	504.8
725.382	508.4
725.792	507
726.202	490.4
726.612	507.4
727.022	497.6
727.432	501.8
779.813	501
780.223	542
780.634	504.4
781.044	503
781.454	499.8
781.865	515.6
782.276	496.8
782.686	508
783.097	506
783.508	491.4
783.919	500.8
784.33	504.2
784.741	508.8
785.152	499.6
785.563	493
785.974	505.8
786.386	507.6
786.776	495.4
787.188	504
787.599	491.6
788.011	498.6
788.423	518.2
788.835	496.2
789.247	498
789.659	506.4
790.071	505.4
790.483	543.4
790.874	498.2
791.286	510.6
791.699	506.2
792.111	506
792.524	504.4
792.937	503.4
793.349	501.8
793.741	494.6
794.154	504.8
794.567	521.4
794.98	507.4
795.393	502.8
795.785	511.8
796.198	502.8
796.612	509
797.026	496.8
797.439	494.2
797.831	503.8
798.245	495.6
798.659	498.2
799.073	502.6
799.487	495.4
799.88	495.6
800.294	506.8
800.708	504.2
801.123	504
801.516	516
801.93	501.2
802.345	489.2
802.76	500.6
803.153	517
803.568	517
803.983	510
804.377	498
804.792	488.6
805.207	488.2
805.601	502.4
806.016	534
806.432	488.8
806.826	522
807.242	509.4
807.658	506.2
808.052	496.8
808.468	495
808.884	494.4
809.279	503.8
809.695	516.6
810.111	515.6
810.506	500.8
810.922	522.8
811.339	495.2
811.734	509.8
812.151	495
812.546	490.6
812.963	499.2
813.38	501.8
813.776	506.8
814.193	518.8
814.589	500.4
815.006	497.6
815.402	500.8
815.82	494.2
816.237	503.4
816.633	502.4
817.051	489.2
817.448	501.8
817.866	495.8
818.262	517.2
818.68	500.8
819.077	490.6
819.495	502.8
819.892	525.8
820.311	495.6
820.708	496.6
821.127	496
821.524	501.2
821.943	499.2
822.34	515.4
822.759	508.6
823.157	503.2
823.576	508.8
823.974	509.6
824.393	553.8
824.791	499.6
825.189	494.2
825.609	500
826.007	504
826.427	491
826.826	499.2
827.246	509.4
827.644	487.6
828.043	502.2
828.463	493.4
828.862	510.4
829.261	501.2
829.682	492.4
830.081	499.2
830.502	492.8
830.901	503.8
831.301	498.6
831.722	491
832.121	496.2
832.521	503.2
832.943	497
833.342	491.8
833.742	489.2
834.164	498.2
834.564	496
834.965	505
835.386	493.8
835.787	498
836.188	497
836.588	502.2
837.01	505.2
837.411	487.8
837.812	503.2
838.213	507.8
838.636	495.8
839.037	561.8
839.438	497.2
839.84	502.6
840.263	511.4
840.664	507.4
841.066	500.6
841.468	509.4
841.891	503.8
842.293	511.4
842.695	503.2
843.098	511.2
843.5	500.2
843.902	501.6
844.326	508.2
844.729	499
845.131	518
845.534	504
845.937	506.6
846.34	516.4
846.764	499.2
847.167	502.4
847.571	497.2
847.974	509
848.377	496.6
848.781	546.6
849.184	507.6
849.588	491.8
849.992	495.6
850.396	502.4
850.821	516
851.225	500.4
851.63	500.4
852.034	510.4
852.438	500.2
852.843	568.6
853.247	502.8
853.652	493.2
854.057	515
854.462	497
854.867	493.8
855.272	525.8
855.677	506.2
856.082	501.4
856.487	494.8
856.893	508.4
857.298	503
857.704	491.4
858.11	511.2
858.516	504.6
858.922	498.4
859.328	505.2
859.734	503.8
860.14	506.8
860.525	497.8
860.931	495.4
861.338	492.2
861.745	503.4
862.151	503.4
862.558	497.6
862.965	497.8
863.372	492.6
863.779	487.8
864.186	515.6
864.572	495.2
864.98	516.2
865.387	529.2
865.795	492.8
866.203	507
866.61	487.2
867.018	497.4
867.405	497.8
867.813	496
868.221	494.6
868.63	495
869.038	505.4
869.425	518.6
869.834	494.6
870.243	484.6
870.652	494.8
871.039	491.8
871.448	494.4
871.857	495.8
872.266	492.6
872.654	491.2
873.064	496.2
873.473	504.6
873.883	493.6
874.271	498
874.681	503.8
875.091	494.2
875.48	505.2
875.89	512
876.3	491.6
876.689	489.6
877.1	496.8
877.51	498.2
877.9	516.4
878.31	498.6
878.721	524.8
879.111	500.2
879.522	501.4
879.933	499.2
880.323	491.2
880.734	494.6
881.125	500.2
881.536	493
881.948	494.2
882.338	505
882.75	500.8
883.141	496.4
883.553	500.4
883.944	518.2
884.356	501.4
884.769	491.2
885.16	498.4
885.573	502.6
885.964	492.8
886.377	499
886.768	497
887.181	496.6
887.573	502.6
887.987	505
888.378	515.6
888.792	498
889.184	547.2
889.598	504.8
889.99	503.4
890.383	491.8
890.797	497.4
891.19	501.2
891.604	497.6
891.997	493.6
892.411	490.2
892.805	494.2
893.198	497.2
893.613	493
894.006	495.8
894.421	493.4
894.815	510
895.209	494
895.624	530
896.018	515.8
896.412	492
896.828	498
897.222	506.8
897.617	495.6
898.033	512.8
898.427	496.4
898.822	496.8
899.239	495.8
899.634	493.4
900.029	506.6
900.424	486.6
900.841	489
901.236	503.2
901.632	504.2
902.027	544.8
902.445	502.8
902.841	498
903.237	493.4
903.633	504.2
904.05	499.2
904.447	493.6
904.843	502.2
905.24	494.2
905.636	488.4
906.033	498.8
906.451	504.4
906.848	489
907.246	498
907.643	500.6
908.04	498.2
908.438	510.2
908.835	505.4
909.254	486
909.652	499
910.05	498.6
910.448	492.2
910.846	497.4
911.244	495
911.643	500
912.041	494
912.44	502.4
912.839	493.8
913.237	493.4
913.636	490.4
914.035	495.6
914.434	494.4
914.834	507.2
915.233	505.4
915.633	494
916.032	487.8
916.432	496.2
916.832	498
917.232	486.8
917.632	484.2
918.032	503.2
918.432	495.2
918.833	506.4
919.233	497
919.634	494
920.035	504
920.436	489.2
920.837	497.8
921.238	491.4
921.639	494.6
922.019	500
922.42	500.6
922.822	504.2
923.224	494.6
923.625	499.8
924.027	494.8
924.429	507.6
924.81	500.2
925.212	500
925.615	492.2
926.017	497.4
926.42	505.6
926.801	494.6
927.204	496.2
927.607	507.2
928.01	500.2
928.413	496.8
928.795	490.2
929.199	495
929.602	492
930.006	490.6
930.388	494
930.792	504.4
931.196	484.4
931.579	526.2
931.983	482.8
932.388	535.6
932.771	490.6
933.176	493.2
933.58	495
933.964	500
934.369	490
934.774	496.2
935.158	501.4
935.563	498
935.947	498
936.353	505.2
936.759	496
937.143	497.6
937.549	494.2
937.934	503.2
938.34	520.4
938.746	495.6
939.131	492
939.538	495.6
939.923	496
940.33	486
940.716	491.8
941.123	501.2
941.508	504.4
941.916	511.4
942.302	503.4
942.709	488.6
943.096	490
943.503	498.2
943.89	500
944.298	491.6
944.685	520.6
945.072	496.2
945.48	506.4
945.867	494
946.276	493.6
946.663	521.8
947.051	507.6
947.46	500.4
947.848	496.2
948.257	494.8
948.645	496
949.033	497.4
949.443	489.2
949.831	522.6
950.22	493
950.63	501.4
951.018	517.2
951.407	498.2
951.796	486.6
952.207	503.8
952.596	502
952.985	497.8
953.375	534.6
953.786	495
954.176	491.4
954.566	497.6
954.956	485.4
955.367	499.6
955.758	509.4
956.148	481
956.539	505.6
956.929	489.2
957.341	483.6
957.732	487.4
958.123	492
958.515	481.6
958.906	495.4
959.297	487
959.689	495.2
960.102	487.2
960.494	493.4
960.886	490.8
961.278	486.6
961.67	503.4
962.062	523.8
962.455	487.6
962.847	485.6
963.24	486.6
963.633	487.2
964.026	481.8
964.419	480.2
964.812	494.4
965.206	490
965.599	494.2
965.993	486.2
966.386	491.2
966.78	505.4
967.174	496
967.569	496.8
967.963	492.6
968.357	479.8
968.752	486.2
969.146	486.2
969.541	483.8
969.936	488
970.331	493.2
970.705	485.2
971.1	492.4
971.496	507.8
971.892	486.4
972.287	490.4
972.683	497
973.079	486.4
973.454	505.8
973.85	490
974.247	504
974.643	510.6
975.04	497.2
975.415	495
975.812	485.6
976.209	494
976.607	487.4
976.982	503
977.38	516.4
977.778	494.4
978.175	484.8
978.552	498.4
978.95	492.6
979.348	498
979.725	526.4
980.123	495.2
980.522	491.6
980.899	486.8
981.298	492.2
981.697	493.2
982.075	486.8
982.474	490.2
982.852	494.4
983.251	497.6
983.651	493.8
984.029	500.6
984.429	495.2
984.808	484
985.208	495
985.609	486
985.987	483
986.388	484
986.768	493.8
987.168	495.2
987.548	498.4
987.949	503
988.329	499.2
988.731	487.6
989.111	492.6
989.491	493.8
989.893	499.4
990.273	501.2
990.676	490.8
991.057	491.4
991.459	495
991.84	495.2
992.221	485
992.624	509
993.006	495.2
993.388	492.2
993.791	497.8
994.173	494.6
994.576	523
994.959	482
995.341	482.2
995.724	489.4
996.128	489.2
996.511	498.4
996.894	493
997.298	489
997.681	501.4
998.065	486
998.448	493
998.854	498.4
999.237	483.6
999.621	505.8
1000.01	496.6
1000.39	489.4
1000.8	483
1001.18	489.8
1001.56	495.6
1001.95	499
1002.33	490.4
1002.72	487.6
1003.13	493.6
1003.51	490
1003.9	493.8
1004.28	506.2
1004.67	487.4
1005.06	492.6
1005.44	525.8
1005.83	479.8
1006.21	490.4
1006.6	484.2
1006.99	491.2
1007.37	489.8
1007.76	494.6
1060.12	482.2
1060.51	488.2
1060.89	494.6
1061.28	501.8
1061.67	498.8
1062.06	495.2
1062.45	490.4
1062.83	488.6
1063.22	500.2
1063.61	534
1064	502.4
1064.39	495.8
1064.78	489
1065.14	499
1065.53	499.2
1065.92	495
1066.31	487.2
1066.7	496
1067.09	500.6
1067.46	500.4
1067.85	484.4
1068.24	491.4
1068.63	495.4
1069.02	490.8
1069.39	499
1069.78	486.6
1070.17	488.4
1070.57	483.2
1070.93	499.4
1071.33	490.2
1071.72	497.2
1072.11	488.6
1072.48	483
1072.87	488.6
1073.26	497
1073.64	491.4
1074.03	493.6
1074.4	486.2
1074.79	486.6
1075.19	493.4
1075.56	491
1075.95	495
1076.34	490.2
1076.72	484.4
1077.11	499.4
1077.48	508.2
1077.88	492.2
1078.25	488.6
1078.64	493.6
1079.02	495.6
1079.41	503.8
1079.78	491.4
1080.18	490.4
1080.55	546
1080.95	485
1081.32	493.6
1081.72	499.8
1082.09	494.6
1082.49	487.2
1082.86	491
1083.24	493.4
1083.63	495.6
1084.01	490.2
1084.38	497.6
1084.78	485.2
1085.16	493.8
1085.55	505.6
1085.93	507.2
1086.31	484.6
1086.7	521.2
1087.08	489.6
1087.46	488.6
1087.83	482
1088.23	501.4
1088.61	495.4
1088.99	492.4
1089.36	496.4
1089.76	491.6
1090.14	495.2
1090.52	488.8
1090.9	492.4
1091.27	513.2
1091.67	516.4
1092.05	493.8
1092.43	484.4
1092.81	499.4
1093.19	505.8
1093.57	486.2
1093.95	490
1094.35	498.6
1094.73	497.8
1095.11	480.8
1095.49	486.6
1095.87	491.4
1096.25	498
1096.63	503.4
1097.01	486.4
1097.39	496.8
1097.77	491
1098.15	485.2
1098.53	478.4
1098.91	488.6
1099.29	489.4
1099.68	502.4
1100.06	489.8
1100.44	484.4
1100.82	488.8
1101.18	491.8
1101.56	479.2
1101.95	486.6
1102.33	494.4
1102.71	489.2
1103.1	480
1103.48	478.8
1103.86	481.6
1104.22	487.8
1104.61	486.2
1104.99	486.2
1105.38	480.2
1105.76	487.4
1106.12	485.4
1106.51	512.6
1106.89	499.2
1107.26	488.8
1107.64	492.8
1108.03	479.8
1108.41	480.6
1108.78	489.6
1109.16	489.6
1109.55	496.4
1109.91	481.4
1110.3	480
1110.69	497.8
1111.05	485.8
1111.44	497.4
1111.8	486
1112.19	488.4
1112.58	501.6
1112.94	490.2
1113.33	488.4
1113.7	481.8
1114.09	485.2
1114.45	487.6
1114.84	484
1115.21	495
1115.6	479.4
1115.96	491.2
1116.35	496.6
1116.72	487.8
1117.11	510.6
1117.48	485.6
1117.85	486.2
1118.24	506.6
1118.6	484.8
1118.99	482.2
1119.36	497.4
1119.73	496.4
1120.12	495.2
1120.49	482.6
1120.86	491
1121.25	490.2
1121.62	477
1121.99	478.8
1122.38	503.4
1122.76	490.4
1123.13	487.8
1123.5	496
1123.89	491.8
1124.26	484.8
1124.63	478.4
1125	494.4
1125.4	479.4
1125.77	482.8
1126.14	480.8
1126.51	488.4
1126.88	493.6
1127.26	482.4
1127.63	482.8
1128.02	494.2
1128.4	480
1128.77	485.4
1129.14	491.2
1129.52	487.6
1129.89	488.6
1130.26	486.6
1130.64	485.6
1131.01	492
