#lambda/nm	C1
208.295	471.2
208.67	434.6
209.045	393.8
209.419	400.2
209.794	537.4
210.169	520.6
210.544	631.4
210.919	539.2
211.295	529
211.67	535.6
212.045	531.8
212.421	530.2
212.796	569
213.172	531
213.547	532.8
213.923	526.2
214.299	531.8
214.675	545.6
215.051	541
215.427	543.4
215.803	553
216.179	530.2
216.555	527.8
216.932	540.2
217.308	543.4
217.684	535.6
218.061	539.4
218.438	536.8
218.814	529.6
219.191	542.4
219.568	529.4
219.945	533.2
220.322	547.4
220.699	535.6
221.076	541.2
221.453	540.2
221.83	526.2
222.208	531.4
222.585	536.8
222.962	536
223.34	544.2
223.717	539.6
224.095	535.4
224.473	541
224.851	534
225.229	530.8
225.607	551.6
225.985	534.4
226.363	538.6
226.741	536
227.119	543.8
227.497	544.6
227.876	526.6
228.254	541.2
228.633	542.2
229.011	539.2
229.39	535.6
229.769	541.8
230.148	543.4
230.527	551.6
230.905	540.8
231.284	544
231.664	538.2
232.043	550
232.422	546.2
232.801	534.4
233.181	544.8
233.56	534.6
233.94	547.2
234.319	525.8
234.699	535.4
235.079	572.8
235.458	570.2
235.838	555
236.218	535.6
236.598	518.4
236.978	529.4
237.358	528.4
237.738	537.4
238.119	539.2
238.499	522.6
238.88	536.2
239.26	552.8
239.641	527.4
240.021	536
240.402	540.2
240.783	538.2
241.163	537.2
241.544	542
241.925	534.4
242.306	552.2
242.687	528.8
243.069	544
243.45	541.4
243.831	526.4
244.212	537.2
244.594	571.2
244.975	546.2
245.357	535.8
245.739	530.4
246.12	544.2
246.502	554.4
246.884	533.6
247.266	539.4
247.648	539.2
248.03	560
248.412	544.2
248.794	533.4
249.176	535.2
249.559	542.8
249.941	530.8
250.323	525.6
250.706	537
251.089	538.2
251.471	538
251.854	528
252.237	546.2
252.62	541.2
253.002	544.4
253.385	540.6
253.769	551.4
254.152	535.2
254.535	546
254.918	530.6
255.301	535.8
255.685	537
256.068	527.2
256.452	552.6
256.835	547.4
257.219	537
257.603	546
257.986	522.4
258.37	531.8
258.754	524.8
259.138	534
259.522	538.4
259.906	528.8
260.29	531.8
260.675	527.4
261.059	532.4
261.443	524.6
261.828	547.6
262.212	535.8
262.597	531
262.981	531.6
263.366	536.2
263.751	531.8
264.136	531.2
264.521	531.8
264.906	522
265.291	537.6
265.676	536.2
266.061	541.2
266.446	547
266.831	537.2
267.217	553.4
267.602	549.8
267.987	541.2
268.373	535.2
268.759	537.8
269.144	545.6
269.53	538.2
269.916	533.8
270.302	536.2
270.688	539.8
271.074	547.4
271.46	548.6
271.846	562.2
272.232	537.4
272.618	534.2
273.004	532.8
273.391	548.4
273.777	553.4
274.164	540.8
274.55	553
274.937	537.4
275.324	527.8
275.71	539.8
276.097	541.2
276.484	534.4
276.871	537.6
277.258	542
277.645	527.4
278.032	535
278.419	537.2
278.807	542.4
279.194	529.8
279.581	536.6
279.969	542
280.356	542.8
280.744	533.4
281.131	561
281.519	549
281.907	531
282.295	529.4
282.682	549.4
283.07	540.8
283.458	544.2
283.846	547.6
284.235	547.8
284.623	547.2
285.011	528
285.399	544.8
285.788	536.8
286.176	531
286.565	543
286.953	530.2
287.342	526
287.731	529.8
288.119	530.6
288.508	534.8
288.897	537.6
289.286	534.8
289.675	539.8
290.064	551.4
290.453	531.2
290.821	532.8
291.21	549.4
291.599	529.6
291.989	532.6
292.378	539.6
292.768	556.6
293.157	542.2
293.547	535.6
293.936	535
294.326	533.2
294.716	545.6
295.106	527.8
295.496	549.4
295.886	546.2
296.276	536.2
296.666	532.8
297.056	536.2
297.446	524.4
297.836	549.8
298.227	538.8
298.617	542.6
299.008	548.8
299.398	538.6
299.789	525.4
300.179	539.4
300.57	547
300.961	533.4
301.352	538.2
301.742	545
302.133	542.4
302.524	540.2
302.915	535.4
303.307	539.8
303.698	543.6
304.089	541.4
304.48	536.6
304.872	546.6
305.263	538.8
305.655	531.4
306.046	544.8
306.438	537.6
306.829	530.2
307.221	550.6
307.613	542.4
308.005	549.8
308.397	548.6
308.789	556.2
309.181	558.4
309.573	548
309.965	548
310.357	532.4
310.749	552.2
311.142	533.2
311.534	536.2
311.926	543.6
312.319	539.8
312.711	535.4
313.104	548.2
313.497	542.8
313.889	572
314.282	551.6
314.675	546.4
315.068	543
315.461	545.6
315.854	561.6
316.247	542.6
316.64	540.6
317.033	534.6
317.405	543
317.798	535
318.192	539.8
318.585	530.4
318.979	536.8
319.372	538.6
319.766	538.6
320.16	549
320.553	545.4
320.947	548.6
321.341	529.8
321.735	535.8
322.129	531
322.523	553
322.917	537.2
323.311	546.2
323.705	539.6
324.099	546.6
324.494	553.6
324.888	545.8
325.282	538
325.677	544.6
326.071	545.4
326.466	552.8
326.861	545.2
327.255	548.8
327.65	550.2
328.045	545.8
328.44	542
328.835	544.6
329.23	538.4
329.625	562.2
330.02	538.8
330.415	551
330.81	543.8
331.206	545
331.601	532.2
331.996	553.6
332.37	551
332.766	533.4
333.161	560.4
333.557	530.8
333.953	540.2
334.348	717.8
334.744	537.6
335.14	539
335.536	536.2
335.932	549.4
336.328	525.2
336.724	545.2
337.12	539.8
337.516	538.6
337.913	539.8
338.309	544.4
338.705	534.6
339.102	536.8
339.498	525.8
339.895	543.4
340.291	529.4
340.688	546
341.085	534
341.481	531
341.878	527.2
342.275	550
342.672	529.8
343.069	537.8
343.466	523.6
343.842	536.2
344.239	525.6
344.636	529.2
345.033	532.2
345.431	528.8
345.828	537
346.225	536
346.623	564.2
347.02	528.6
347.418	540.4
347.816	547.8
348.213	529.6
348.611	541
349.009	537.2
349.407	540.2
349.805	521.2
350.203	528.8
350.601	549.8
350.999	529
351.397	570.2
351.795	540
352.193	539.8
352.57	542
352.969	534.2
353.367	524.4
353.766	529
354.164	534
354.563	540.6
354.961	536.4
355.36	520.8
355.759	527
356.158	519.6
356.557	521.2
356.956	514
357.355	520.2
357.754	527.4
358.153	536.6
358.552	548.2
358.951	527
359.35	541.2
359.75	526
360.149	523.2
360.527	525.4
360.926	520.8
361.326	532.6
361.726	530.4
362.125	520.4
362.525	541
362.925	524.8
363.325	527.6
363.724	531.8
364.124	522.8
364.524	524.8
364.924	524.8
365.324	534.8
365.725	519.6
366.125	533
366.525	528.8
366.904	521.4
367.304	514
367.705	539.4
368.105	534
368.506	534.6
368.906	534.8
369.307	520
369.708	537
370.108	518
370.509	536.8
370.91	522
371.311	533
371.712	530
372.113	537.2
372.514	523.8
372.894	535.4
373.295	520.8
373.696	531.2
374.097	541.2
374.499	551.6
374.9	537
375.301	518
375.703	529.4
376.105	523.4
376.506	530
376.908	536.2
377.309	532
377.711	531.6
378.113	527
378.493	527.4
378.895	532.2
379.297	539
379.699	512.6
380.102	538.2
380.504	527.4
380.906	531.6
381.308	548
381.71	529.2
382.113	534
382.515	519.8
382.918	530.4
383.299	530
383.701	537.4
384.104	523
384.507	519.4
384.909	526.6
385.312	518.2
385.715	513.6
386.118	524
386.521	513.6
386.924	536.6
387.327	522.4
387.709	522
388.112	507.8
388.515	524.2
388.918	526.8
389.322	528.2
389.725	524.4
390.129	545.8
390.532	530.2
390.936	524.6
391.339	522
391.743	529.4
392.125	524.8
392.529	532.6
392.933	538.8
393.337	525.4
393.74	530.8
394.144	519
394.548	524
394.953	527
395.357	535.4
395.761	522
396.144	530
396.548	524.6
396.952	533.4
397.357	533.6
397.761	522.2
398.166	526.8
398.57	524.2
398.975	525.6
399.379	531.4
399.763	567.6
400.168	530.4
400.572	531.2
400.977	526.4
401.382	547.6
401.787	537.6
402.192	539.8
402.597	537.4
403.002	512.4
403.386	542.2
403.791	548.8
404.197	529.2
404.602	533.8
405.007	528.2
405.413	534
405.818	529.4
406.224	528.4
406.608	532.6
407.014	526.2
407.42	537.4
407.825	531.8
408.231	538.8
408.637	532.6
409.043	539.4
409.449	526.4
409.834	517.8
410.24	528
410.646	538
411.052	540.2
411.458	532
411.865	530.8
412.271	532.6
412.677	530
413.062	531.6
413.469	523.4
413.875	536.6
414.282	536.2
414.689	524.6
415.095	537.6
415.502	520.8
415.888	532.6
416.294	514
416.701	565.8
417.108	519.4
417.515	538.4
417.923	527.8
418.33	541.4
418.715	528.8
419.123	525.8
419.53	525.2
419.937	532.8
420.345	537.2
420.752	527.2
421.16	540.2
421.546	528.4
421.953	531.2
422.361	520.4
422.769	535.2
423.177	521.4
423.585	546.6
423.992	542.4
424.379	537
424.787	537.2
425.195	541.8
425.603	530.6
426.011	538.4
426.419	540.4
426.806	537.2
427.214	537.8
427.623	538.8
428.031	549
428.44	531.4
428.848	541.4
429.235	544.6
429.644	538.8
430.053	529
430.461	545.6
430.87	550.4
431.279	542
431.666	532.4
432.075	528.4
432.484	539.8
432.893	528.4
433.302	538
433.711	564.8
434.099	541.6
434.508	529
434.918	517.8
435.327	534.4
435.737	532.2
436.125	530.4
436.534	528.6
436.944	533.4
437.353	533.4
437.763	553.4
438.173	522
438.561	533.4
438.971	509.6
439.381	527.2
439.791	532.6
440.201	513
440.589	523.4
440.999	531.8
441.409	524.8
441.819	510.6
442.23	533
442.619	531.8
443.029	532.6
443.439	528
443.85	530.4
444.26	534.8
444.649	532.8
445.06	528.6
445.471	525.6
445.881	524.8
446.292	540
446.682	547.6
447.092	519.4
447.503	566.4
447.914	527.4
448.325	531.6
448.715	527.4
449.126	524.6
449.537	524.6
449.948	525.4
450.338	524
450.75	527.6
451.161	524.8
451.572	526.6
451.984	520.8
452.374	505.8
452.786	520
453.197	520.8
453.609	522.6
453.999	517.4
454.411	511
454.823	530
455.235	522.6
455.647	520.4
456.037	529.2
456.449	514
456.862	530
457.274	528.6
457.665	513.6
458.077	520
458.489	543.8
458.902	523.6
459.293	528
459.705	521
460.118	521.2
460.53	521.2
460.921	531.4
461.334	528.2
461.747	521.2
462.16	532.4
462.551	526.6
462.964	531.6
463.377	521
463.79	522.2
464.182	531.6
464.595	521
465.008	529.6
465.421	529.2
465.813	516.4
466.226	534.4
466.64	517.4
467.053	562.4
467.445	532.2
467.859	529.4
468.272	526.4
468.686	535.2
469.078	524.4
469.492	520.4
469.906	522.2
470.298	528.8
470.712	518.8
471.126	547.4
471.54	516.4
471.933	510
472.347	527
472.761	523.6
473.175	515.6
473.568	521.6
473.982	516.2
474.397	526.2
474.79	520.4
475.204	525.2
475.619	526
476.033	519.2
476.426	525.8
476.841	520.6
477.256	537.4
477.649	528
478.064	516.4
478.479	521.6
478.872	515.2
479.287	510
479.702	516
480.118	522.6
480.511	526.4
480.927	517.8
481.342	510.6
481.736	518.2
482.151	515
482.566	532.8
482.96	519.6
483.376	524.6
483.792	526
484.186	518.8
484.602	511.4
485.017	511
485.412	515.2
485.827	524
486.243	516.4
486.638	533.4
487.054	533.6
487.47	529.2
487.865	513.6
488.281	513.2
488.697	516.8
489.092	528.8
489.508	511
489.925	529
490.32	512.6
490.736	531
491.153	525
491.548	517.8
491.964	530.2
492.381	510.8
492.776	525.2
493.193	523
493.61	517.4
494.006	519.2
494.422	519.8
494.84	506
495.235	524.8
495.652	520.6
496.069	514.6
496.465	517.6
496.883	521
497.3	539
497.696	514.8
498.113	523.8
498.509	509.6
498.927	508.8
499.344	510
499.741	509.6
500.158	525.6
500.576	530
500.973	519.6
501.39	518
501.787	512.8
502.205	515
502.623	519.8
503.02	517.2
503.438	519.2
503.856	516.6
504.253	523.2
504.671	528.2
505.068	508.8
505.486	517.6
505.905	537.6
506.302	519.2
506.72	529.2
507.118	509.6
507.536	522
507.955	518
508.352	521.2
508.771	525.4
509.169	521.4
509.587	503.4
510.006	509.6
510.404	512.8
510.823	515.4
511.221	515.8
511.64	505
512.038	523.6
512.457	514.4
512.877	517.2
513.275	512
513.694	514.4
514.092	515.6
514.512	508
514.91	518.8
515.33	510.2
515.749	521.8
516.148	517.8
516.568	522.4
516.966	518.8
517.386	514.8
517.785	526
518.205	506.6
518.603	514
519.024	509.6
519.444	517.4
519.843	526.8
520.263	521.6
520.662	515.8
521.082	515.4
521.481	521.2
521.902	513.2
522.301	523.4
522.722	521.2
523.121	515.8
523.542	516.8
523.963	519.6
524.362	509.4
524.783	521.6
525.183	519.2
525.604	517.6
526.003	519
526.425	515
526.824	518.8
527.246	527.2
527.646	510.4
528.067	518
528.467	523.2
528.888	518
529.289	517.6
529.71	514.8
530.11	514.4
530.532	512.2
530.932	518
531.354	512.2
531.755	539
532.176	525.2
532.577	519
532.999	520.6
533.4	514
533.822	530.4
534.223	518
534.645	517
535.046	512.4
535.468	518.4
535.869	531.2
536.292	513
536.693	543.4
537.115	515.2
537.516	507.2
537.939	516
538.34	529.8
538.742	525.4
539.165	518.4
539.566	515.8
539.989	505.2
540.391	506.8
540.814	513.6
541.216	517.2
541.639	513
542.041	520.6
542.464	517.6
542.866	506.2
543.268	507.4
543.691	520.4
544.093	522.8
544.517	534.4
544.919	508.8
545.343	536.6
545.745	505.6
546.147	517.2
546.571	517.2
546.974	506.8
547.398	511.8
547.8	522.4
548.224	508.2
548.627	498.8
549.03	509.8
549.454	504.4
549.857	497.6
550.281	500
550.684	509
551.087	521.4
551.512	517.2
551.915	510.6
552.34	508
552.743	506.4
553.146	513.2
553.571	505.8
553.975	529.8
554.399	506.4
554.803	549.8
555.207	509.8
555.632	507.2
556.036	514.4
556.461	506.6
556.865	518.8
557.268	509.8
557.694	515
558.098	520.4
558.502	515
558.927	510.4
559.332	516.2
559.736	512.8
560.162	522
560.566	509.4
560.992	520.2
561.396	513
561.801	517.2
562.227	518.2
562.631	511.4
563.036	514.6
563.462	520.6
563.867	512.2
564.272	508.2
564.698	515
565.103	507.4
565.508	520.6
565.935	522
566.34	517.2
566.745	523.8
567.172	508
567.577	529.8
567.982	530.8
568.409	515.6
568.815	509.8
569.22	510.8
569.626	522
570.053	507.2
570.459	518.2
570.865	518
571.292	522.2
571.698	520.4
572.104	508.8
572.531	509.6
572.937	524
573.343	519
573.75	513.6
574.177	517.2
574.583	515.8
574.99	502.8
575.396	520.2
575.824	506
576.231	511
576.637	507.2
577.065	534.6
577.472	514.4
577.879	518
578.286	519.6
578.714	507.8
579.121	508
579.528	515.6
579.935	524
580.364	512.8
580.771	498.2
581.178	505.6
581.585	514.4
582.014	514.8
582.421	507.4
582.829	499.8
583.236	512
583.644	499.8
584.073	522
584.481	512.2
584.889	508.2
585.296	517.6
585.726	515.8
586.134	503.4
586.542	506.6
586.95	529.2
587.358	505.4
587.787	509.8
588.196	501.8
588.604	509
589.012	510.2
589.421	499
589.851	513.4
590.259	512
590.668	506.6
591.076	539.6
591.485	514.2
591.894	519
592.324	523.6
592.733	527.8
593.142	504.6
593.551	511.4
593.96	513
594.369	505.4
594.8	497.8
595.209	512.4
595.618	500.6
596.028	513.8
596.437	500.2
596.847	511.4
597.256	512.6
597.687	520
598.097	513.2
598.507	506.4
598.917	516.8
599.327	521
599.736	512
600.146	521
600.556	513.6
600.988	517.4
601.398	513.4
601.808	526
602.219	505.4
602.629	515.4
603.039	508.8
603.45	540.2
603.86	511.2
604.271	519.6
604.703	512
605.114	517.2
605.525	518.8
605.935	521.4
606.346	536.2
606.757	521.6
607.168	524.2
607.579	500.6
607.99	523.4
608.402	515.8
608.813	515.4
609.224	513
609.636	512.6
610.047	513.2
610.48	513.4
610.892	516.4
611.303	528.2
611.715	515.6
612.127	512.6
612.539	515
612.95	519.8
613.362	510.2
613.774	510.4
614.186	516
614.599	518
615.011	528.6
615.423	521.4
615.835	511.8
616.248	510.4
616.66	525.8
617.073	515.8
617.485	514.8
617.898	526.8
618.311	511.6
618.723	522.2
619.136	544.4
619.549	533.2
619.962	539.2
620.375	522.4
620.788	526.4
621.201	516
621.614	532
622.028	530.2
622.441	523.8
622.854	539.6
623.268	519.4
623.681	530.4
624.095	521.6
624.509	527.6
624.922	535
625.336	523
625.728	529
626.142	533.8
626.556	534.4
626.97	536.8
627.384	524.2
627.799	521.6
628.213	532.4
628.627	519
629.041	524.6
629.456	522.4
629.87	530.8
630.285	538.2
630.699	532.4
631.093	521.8
631.507	537.8
631.922	526.2
632.337	538.8
632.752	514.4
633.167	529.8
633.582	529.6
633.997	525.4
634.412	519
634.806	522.6
635.221	514.2
635.637	531
636.052	513.2
636.468	523.4
636.883	538.6
637.299	523.2
637.715	512.2
638.109	519
638.525	509.6
638.941	529.8
639.357	530.2
639.773	533.8
640.189	516
640.584	519.4
641	525
641.416	516.2
641.832	516
642.249	525.2
642.665	522.6
643.06	523.2
643.477	525.2
643.894	505
644.31	516.2
644.727	517.8
645.123	515.8
645.54	517.8
645.957	525
646.374	526.4
646.77	516.4
647.187	535.2
647.604	513.6
648.021	500.6
648.439	500.6
648.835	506.8
649.252	516.6
649.67	507.8
650.088	513
650.484	519.8
650.902	523
651.32	527
651.738	512.8
652.134	516
652.552	526.4
652.971	517.8
653.389	508.2
653.786	525
654.204	525.4
654.622	511.6
655.019	515.2
655.438	519
655.857	507.8
656.275	517.8
656.673	513.4
657.091	520.2
657.51	512.8
657.908	524.4
658.327	527.4
658.746	499.2
659.144	510.4
659.563	526.2
659.982	514.2
660.38	508.4
660.8	515.6
661.219	525.4
661.617	514.4
662.037	520
662.457	522.2
662.855	502.6
663.275	536.4
663.695	515.4
664.094	502.2
664.514	514.4
664.934	507.8
665.333	517.2
665.753	507
666.152	503
666.572	501.8
666.993	524.2
667.392	507.6
667.812	513.2
668.212	509.6
668.632	521.6
669.053	509.6
669.453	511.6
669.874	509
670.273	512.4
670.694	505
671.116	520.8
671.515	515.8
671.937	508.8
672.337	512
672.758	509.4
673.158	509
673.58	507
673.98	516
674.402	523.2
674.824	517
675.224	505.8
675.646	499.8
676.047	507.2
676.469	507.4
676.869	509.2
677.292	515
677.693	500
678.115	504.8
678.516	517.8
678.939	515.8
679.34	503.4
679.762	517.6
680.164	507.6
680.586	498.8
680.988	513.6
681.411	521.4
681.812	505.6
682.236	499.6
682.637	508
683.061	506.6
683.462	506.2
683.864	512.8
684.288	510.4
684.69	502.6
685.114	520.4
685.516	516.6
685.94	499.2
686.342	518.8
686.766	499.2
687.168	512
687.571	522.6
687.995	503.8
688.398	493.2
688.822	504.6
689.225	516.2
689.628	527.6
690.052	502.8
690.456	516.8
690.88	504
691.284	501.2
691.687	515.8
692.112	499.2
692.515	504
692.919	514.2
693.344	505.6
693.747	510.6
694.173	502.4
694.577	519.4
694.98	520.2
695.406	502.2
695.81	510.2
696.214	513.4
696.64	509
697.044	506.8
697.448	513.2
697.874	505.8
698.279	499.6
698.684	492.4
699.11	504.2
699.514	504
699.919	508.2
700.324	496.8
700.75	505
701.156	507.4
701.561	519.4
701.987	506.6
702.393	501.6
702.798	511.6
703.203	507.8
703.63	507.2
704.036	497.4
704.442	505.2
704.847	502.6
705.274	500.4
705.68	513.2
706.086	509.4
706.492	498.2
706.92	506.8
707.326	510.8
707.732	502.4
708.139	505.8
708.545	499
708.973	505.6
709.38	506.8
709.786	495.2
710.193	512.8
710.6	511.4
711.028	494.2
711.435	500.6
711.842	509.8
712.249	500.8
712.656	507.2
713.064	513.6
713.492	497.8
713.9	502.6
714.307	505.4
714.715	502.4
715.123	512.6
715.53	506.6
715.938	515.6
716.367	505.8
716.775	494.8
717.184	498.4
717.592	498.2
718	512
718.408	538.2
718.816	541.4
719.225	508.2
719.633	511.8
720.042	497.8
720.472	503.6
720.881	517.6
721.29	512
721.699	504.6
722.108	510.8
722.517	514.2
722.926	506.8
723.335	507.8
723.744	497
724.154	503.6
724.563	507
724.973	508
725.382	506.8
725.792	514
726.202	498.8
726.612	512.8
727.022	509
727.432	501.4
779.813	499.2
780.223	533.6
780.634	499
781.044	500
781.454	498.6
781.865	512.8
782.276	506.8
782.686	513
783.097	494.2
783.508	508.4
783.919	495.2
784.33	510
784.741	520.8
785.152	497.4
785.563	496.6
785.974	496
786.386	509.6
786.776	495.4
787.188	504
787.599	494.2
788.011	509
788.423	500.2
788.835	501.6
789.247	501.4
789.659	504.4
790.071	502.6
790.483	533.4
790.874	499.6
791.286	504.6
791.699	499.8
792.111	503.4
792.524	508.8
792.937	499
793.349	495.4
793.741	496.8
794.154	498.8
794.567	513.4
794.98	497.6
795.393	494.2
795.785	516.8
796.198	492.8
796.612	493.8
797.026	503
797.439	480.4
797.831	500.8
798.245	487.2
798.659	494.6
799.073	499.6
799.487	493
799.88	501.2
800.294	500.4
800.708	501.4
801.123	499
801.516	513.2
801.93	493.8
802.345	490.6
802.76	508.8
803.153	518.2
803.568	516.8
803.983	513.2
804.377	500
804.792	493.8
805.207	489
805.601	506.6
806.016	533
806.432	499
806.826	523.2
807.242	515.8
807.658	504.4
808.052	495.2
808.468	492.6
808.884	504
809.279	498
809.695	518.6
810.111	513
810.506	502.2
810.922	522.4
811.339	496.4
811.734	501.6
812.151	502.8
812.546	506
812.963	498.4
813.38	502.6
813.776	501.6
814.193	523.2
814.589	494.6
815.006	501.2
815.402	494
815.82	496.6
816.237	511
816.633	500.8
817.051	497.4
817.448	503.2
817.866	490.2
818.262	525.8
818.68	495.6
819.077	501.2
819.495	504
819.892	536.2
820.311	502.4
820.708	496.8
821.127	493.2
821.524	508.2
821.943	509.4
822.34	515.6
822.759	505
823.157	497.2
823.576	517.2
823.974	508.4
824.393	562.2
824.791	495.6
825.189	492.8
825.609	499.8
826.007	497
826.427	488
826.826	496.2
827.246	507
827.644	485
828.043	499.8
828.463	494.2
828.862	506
829.261	502.6
829.682	488.8
830.081	503
830.502	497
830.901	511.4
831.301	497
831.722	494
832.121	499.2
832.521	490.8
832.943	498.4
833.342	497.2
833.742	489.2
834.164	498.6
834.564	502
834.965	509.2
835.386	499.6
835.787	506.2
836.188	508.6
836.588	504
837.01	502.2
837.411	493
837.812	505.4
838.213	506.8
838.636	493
839.037	565.6
839.438	498
839.84	505.6
840.263	506.2
840.664	506.8
841.066	497.2
841.468	501.2
841.891	496.2
842.293	507.4
842.695	504.2
843.098	502.6
843.5	497.2
843.902	504.4
844.326	506.6
844.729	503.2
845.131	515.6
845.534	507.8
845.937	519.6
846.34	512
846.764	502.4
847.167	504
847.571	500.4
847.974	501.4
848.377	499.6
848.781	540.2
849.184	509.2
849.588	493.6
849.992	499.6
850.396	495
850.821	512.8
851.225	507
851.63	494
852.034	512.8
852.438	498.6
852.843	561.2
853.247	491.4
853.652	485.4
854.057	514.2
854.462	492
854.867	506.2
855.272	527.6
855.677	500.6
856.082	496.2
856.487	493.8
856.893	501.4
857.298	494.6
857.704	493.4
858.11	504
858.516	505
858.922	502.4
859.328	513.8
859.734	494.8
860.14	510
860.525	499.8
860.931	494.2
861.338	500.6
861.745	507.2
862.151	502.2
862.558	500.6
862.965	496.6
863.372	499.8
863.779	498.6
864.186	517
864.572	502
864.98	509.2
865.387	526.4
865.795	487.4
866.203	502.6
866.61	495.6
867.018	508.6
867.405	506.4
867.813	498.6
868.221	499.2
868.63	499.2
869.038	507
869.425	533.4
869.834	504.2
870.243	488
870.652	497.2
871.039	491.2
871.448	495.2
871.857	501
872.266	490.8
872.654	500.6
873.064	505
873.473	509
873.883	502
874.271	501.8
874.681	512.6
875.091	487.2
875.48	510
875.89	517.4
876.3	495.4
876.689	493.6
877.1	493.4
877.51	498.2
877.9	513.6
878.31	490.2
878.721	525.6
879.111	497.8
879.522	501
879.933	489.4
880.323	487.4
880.734	492.6
881.125	504
881.536	495.6
881.948	496.2
882.338	499.8
882.75	499.8
883.141	498
883.553	501.6
883.944	527.4
884.356	502.4
884.769	492.2
885.16	494.4
885.573	498
885.964	499.2
886.377	504.4
886.768	483.6
887.181	489.6
887.573	485.6
887.987	497.6
888.378	506.2
888.792	493.6
889.184	525.8
889.598	496.8
889.99	490.8
890.383	480.6
890.797	483.6
891.19	493.6
891.604	487.8
891.997	484.6
892.411	488
892.805	485.2
893.198	494.8
893.613	480.2
894.006	498.8
894.421	487.4
894.815	489.4
895.209	491.8
895.624	532.6
896.018	512.4
896.412	492.2
896.828	502.4
897.222	503.6
897.617	486.6
898.033	513.6
898.427	496.2
898.822	501.8
899.239	491.4
899.634	485.2
900.029	515.2
900.424	494.8
900.841	490.4
901.236	503.6
901.632	498.2
902.027	540.6
902.445	502.2
902.841	497
903.237	497.4
903.633	506.6
904.05	511.8
904.447	496.8
904.843	515.2
905.24	489.6
905.636	495.6
906.033	494.6
906.451	500.2
906.848	495.2
907.246	496
907.643	500.6
908.04	498
908.438	514.6
908.835	510.8
909.254	492.2
909.652	505.2
910.05	501.2
910.448	494.4
910.846	509.4
911.244	489.2
911.643	499.6
912.041	494.6
912.44	517
912.839	492.8
913.237	497.8
913.636	491.4
914.035	509.2
914.434	485.6
914.834	507.6
915.233	507
915.633	497.2
916.032	490.8
916.432	493.8
916.832	501.8
917.232	490.2
917.632	492.4
918.032	501.4
918.432	498.8
918.833	500.2
919.233	501.8
919.634	489
920.035	506.6
920.436	492
920.837	497.6
921.238	496.6
921.639	488.4
922.019	492.4
922.42	497.6
922.822	494.8
923.224	499.4
923.625	491.2
924.027	492.6
924.429	510.2
924.81	499.4
925.212	504.4
925.615	495
926.017	493.6
926.42	502.6
926.801	502.2
927.204	497.8
927.607	499.4
928.01	512.8
928.413	504.2
928.795	484.8
929.199	494.8
929.602	496.8
930.006	497.8
930.388	493.6
930.792	491
931.196	498.4
931.579	527
931.983	490.4
932.388	535.8
932.771	492.2
933.176	485.8
933.58	493.2
933.964	504.8
934.369	482.4
934.774	499.6
935.158	494
935.563	498.6
935.947	491.4
936.353	505
936.759	490.4
937.143	503.8
937.549	495.8
937.934	508.6
938.34	509
938.746	499.8
939.131	492
939.538	496.6
939.923	496
940.33	492.4
940.716	494.2
941.123	500
941.508	508.8
941.916	506.8
942.302	499
942.709	489.8
943.096	486
943.503	495.4
943.89	495.4
944.298	491.8
944.685	520.6
945.072	497.4
945.48	511.2
945.867	484.4
946.276	488.2
946.663	509.8
947.051	504.2
947.46	499.8
947.848	497
948.257	488
948.645	490.4
949.033	492.6
949.443	496.8
949.831	520.6
950.22	491.8
950.63	501.4
951.018	525.8
951.407	496.2
951.796	489.4
952.207	494.6
952.596	503.8
952.985	481.6
953.375	531.2
953.786	484
954.176	495.2
954.566	498.6
954.956	483.4
955.367	492.8
955.758	507.6
956.148	478
956.539	507
956.929	487.2
957.341	491.2
957.732	490.6
958.123	502.4
958.515	491.6
958.906	506.4
959.297	497.8
959.689	500.6
960.102	495.4
960.494	500.2
960.886	495.4
961.278	492.8
961.67	516.2
962.062	524.2
962.455	490.8
962.847	487.6
963.24	493.4
963.633	491.4
964.026	488.8
964.419	502.8
964.812	501
965.206	495.8
965.599	496.6
965.993	496.2
966.386	490.8
966.78	504.4
967.174	504
967.569	494.4
967.963	484.4
968.357	482
968.752	492
969.146	490.2
969.541	490.6
969.936	498.2
970.331	500.4
970.705	493.4
971.1	492.4
971.496	497
971.892	484.2
972.287	495.4
972.683	487.6
973.079	487
973.454	503.6
973.85	494.6
974.247	495.6
974.643	513.8
975.04	494.6
975.415	494
975.812	481
976.209	497.8
976.607	482.4
976.982	496.2
977.38	506.4
977.778	497.4
978.175	493.2
978.552	493.6
978.95	499.2
979.348	495.6
979.725	531.8
980.123	487.4
980.522	492
980.899	480.2
981.298	480.6
981.697	485.2
982.075	479
982.474	481.4
982.852	486.6
983.251	493.4
983.651	483.8
984.029	494.6
984.429	487
984.808	481.2
985.208	484.2
985.609	482.4
985.987	479
986.388	486.8
986.768	494.4
987.168	485
987.548	499.8
987.949	496
988.329	494
988.731	483
989.111	496.8
989.491	491
989.893	490.2
990.273	494.6
990.676	488.2
991.057	484.2
991.459	488.4
991.84	491.8
992.221	484.4
992.624	506
993.006	499.8
993.388	492.8
993.791	492.4
994.173	497.6
994.576	521.2
994.959	490.2
995.341	494
995.724	489.2
996.128	500.6
996.511	495
996.894	495
997.298	491.4
997.681	491
998.065	494.8
998.448	487.4
998.854	503.2
999.237	489.8
999.621	495.8
1000.01	508.4
1000.39	487
1000.8	490.8
1001.18	497
1001.56	510.4
1001.95	496.6
1002.33	503.6
1002.72	492.2
1003.13	491.8
1003.51	490.4
1003.9	498
1004.28	508.4
1004.67	487.4
1005.06	494.8
1005.44	525.4
1005.83	480.8
1006.21	495.6
1006.6	492.6
1006.99	502
1007.37	496
1007.76	498.2
1060.12	481.6
1060.51	490.4
1060.89	508.8
1061.28	493.8
1061.67	497.2
1062.06	501.8
1062.45	502.2
1062.83	489
1063.22	496.6
1063.61	521.8
1064	491.2
1064.39	496.4
1064.78	490.6
1065.14	511
1065.53	497.8
1065.92	490.6
1066.31	491.4
1066.7	495
1067.09	509.8
1067.46	499.8
1067.85	491.6
1068.24	484.6
1068.63	502.4
1069.02	492.6
1069.39	494
1069.78	491.2
1070.17	485.2
1070.57	488.4
1070.93	490.6
1071.33	486.6
1071.72	497.4
1072.11	488.4
1072.48	485.4
1072.87	497.2
1073.26	487.4
1073.64	494.6
1074.03	483.8
1074.4	487.6
1074.79	487.2
1075.19	492.2
1075.56	495.8
1075.95	492.6
1076.34	493.4
1076.72	491.2
1077.11	504
1077.48	499.8
1077.88	492.2
1078.25	495.6
1078.64	495.2
1079.02	504
1079.41	502
1079.78	493.6
1080.18	496.2
1080.55	537.8
1080.95	492
1081.32	491.4
1081.72	492.6
1082.09	492.8
1082.49	491.2
1082.86	489.6
1083.24	490.8
1083.63	487.6
1084.01	490
1084.38	495
1084.78	487.4
1085.16	492.4
1085.55	504
1085.93	505.2
1086.31	479.4
1086.7	512.6
1087.08	491.6
1087.46	493
1087.83	488.8
1088.23	499.4
1088.61	489.6
1088.99	493.2
1089.36	490.8
1089.76	489.8
1090.14	488.6
1090.52	486.4
1090.9	491.4
1091.27	502.2
1091.67	505.4
1092.05	494.8
1092.43	478.2
1092.81	494
1093.19	501.6
1093.57	488.4
1093.95	486.2
1094.35	498.2
1094.73	500.8
1095.11	482.4
1095.49	481.8
1095.87	492.4
1096.25	500.6
1096.63	502
1097.01	485.2
1097.39	496.2
1097.77	486.4
1098.15	489.4
1098.53	493
1098.91	494.4
1099.29	485.2
1099.68	495
1100.06	501.4
1100.44	493.6
1100.82	496.8
1101.18	495.8
1101.56	483.4
1101.95	491.4
1102.33	496
1102.71	492.4
1103.1	482.4
1103.48	480.4
1103.86	485.6
1104.22	495.2
1104.61	484.2
1104.99	489
1105.38	478.4
1105.76	489.6
1106.12	487
1106.51	518.4
1106.89	499.4
1107.26	488.8
1107.64	493.4
1108.03	487.6
1108.41	486.2
1108.78	489
1109.16	491.2
1109.55	488.8
1109.91	480
1110.3	481.8
1110.69	500.2
1111.05	493.6
1111.44	494.4
1111.8	490.6
1112.19	499.4
1112.58	495.8
1112.94	491.2
1113.33	483
1113.7	487
1114.09	492
1114.45	487
1114.84	489.6
1115.21	496.4
1115.6	489
1115.96	493
1116.35	496.4
1116.72	481.2
1117.11	502.4
1117.48	482.4
1117.85	493.2
1118.24	500.4
1118.6	490.2
1118.99	477.4
1119.36	487.2
1119.73	489
1120.12	487.8
1120.49	478
1120.86	485.2
1121.25	487.6
1121.62	467.4
1121.99	481.8
1122.38	496.4
1122.76	483.6
1123.13	482.8
1123.5	488.6
1123.89	486.4
1124.26	480.2
1124.63	480.6
1125	484.8
1125.4	487.6
1125.77	480.2
1126.14	468.6
1126.51	480
1126.88	486.6
1127.26	489
1127.63	472.2
1128.02	491.4
1128.4	486.6
1128.77	491
1129.14	487
1129.52	485.6
1129.89	488.6
1130.26	483
1130.64	482.2
1131.01	488.2
