#lambda/nm	C1
208.295	467.4
208.67	433.8
209.045	393
209.419	400.2
209.794	534.8
210.169	517.8
210.544	623.4
210.919	535.8
211.295	523.4
211.67	537
212.045	528
212.421	535.6
212.796	561
213.172	523.4
213.547	528.2
213.923	538.6
214.299	530.4
214.675	546
215.051	538.8
215.427	542.2
215.803	545.6
216.179	541.2
216.555	526.8
216.932	542.8
217.308	533.8
217.684	540.2
218.061	537
218.438	542
218.814	525.6
219.191	539.4
219.568	524.4
219.945	541.6
220.322	535.2
220.699	531.2
221.076	544.4
221.453	530.8
221.83	520.4
222.208	531.6
222.585	523
222.962	533.2
223.34	534.6
223.717	526
224.095	531.6
224.473	530.6
224.851	523.6
225.229	525.8
225.607	546.6
225.985	525.6
226.363	536.4
226.741	537.6
227.119	527.2
227.497	542.2
227.876	517.8
228.254	536.2
228.633	542.8
229.011	536
229.39	535.2
229.769	541.8
230.148	536.8
230.527	553.8
230.905	549
231.284	534.2
231.664	527.8
232.043	550.2
232.422	538.6
232.801	529.6
233.181	539
233.56	536.6
233.94	535.6
234.319	527.4
234.699	528.8
235.079	565.2
235.458	567.4
235.838	549.6
236.218	534
236.598	535
236.978	531.8
237.358	528.6
237.738	531.2
238.119	542.8
238.499	523.8
238.88	532.6
239.26	539.8
239.641	517.4
240.021	531.6
240.402	529.2
240.783	526.2
241.163	530.6
241.544	531
241.925	529
242.306	547.6
242.687	526
243.069	534.8
243.45	540.8
243.831	526.4
244.212	534.6
244.594	565.2
244.975	541.4
245.357	536.8
245.739	530.2
246.12	534.6
246.502	539
246.884	538.2
247.266	538
247.648	539.2
248.03	556.4
248.412	531.6
248.794	548.4
249.176	531
249.559	542
249.941	526.6
250.323	525
250.706	533.6
251.089	530
251.471	540.4
251.854	536.2
252.237	526.2
252.62	545
253.002	536.2
253.385	540.8
253.769	546.8
254.152	539.6
254.535	535.4
254.918	528.4
255.301	529.2
255.685	527.8
256.068	532.6
256.452	552.8
256.835	547.8
257.219	536.6
257.603	542.4
257.986	524.2
258.37	545.8
258.754	522.6
259.138	544.2
259.522	543
259.906	532
260.29	547
260.675	540.2
261.059	540.4
261.443	519.8
261.828	537.6
262.212	537.2
262.597	526.2
262.981	528
263.366	542.8
263.751	526.2
264.136	534.8
264.521	539
264.906	525
265.291	554.4
265.676	533.4
266.061	543.4
266.446	542.6
266.831	534.8
267.217	549.8
267.602	540
267.987	537.2
268.373	536.8
268.759	538.6
269.144	541.4
269.53	534.4
269.916	530.2
270.302	528.4
270.688	540.2
271.074	543.2
271.46	539.4
271.846	571.4
272.232	529.8
272.618	539.2
273.004	537.6
273.391	547.6
273.777	553.2
274.164	542.8
274.55	545.8
274.937	535.6
275.324	532
275.71	537.6
276.097	539
276.484	526.6
276.871	540.4
277.258	539.4
277.645	528.2
278.032	530
278.419	530.4
278.807	536.8
279.194	526.2
279.581	522.8
279.969	533.2
280.356	533.8
280.744	540.2
281.131	549.4
281.519	539.2
281.907	531
282.295	526.2
282.682	537.4
283.07	533.6
283.458	541.8
283.846	543.8
284.235	541.6
284.623	540.2
285.011	530.2
285.399	538.8
285.788	531.6
286.176	521.6
286.565	545.8
286.953	528.2
287.342	531.4
287.731	531.6
288.119	534
288.508	539
288.897	533.8
289.286	522
289.675	532.6
290.064	536
290.453	530.6
290.821	530
291.21	545.4
291.599	528.4
291.989	530
292.378	530.2
292.768	544.6
293.157	547
293.547	540
293.936	529.6
294.326	530.8
294.716	535.6
295.106	530
295.496	538.8
295.886	539.8
296.276	527.2
296.666	533.6
297.056	531.8
297.446	523.8
297.836	546
298.227	536
298.617	540.6
299.008	542.2
299.398	528.8
299.789	529.2
300.179	534.6
300.57	541.4
300.961	528.2
301.352	533.8
301.742	542.8
302.133	526
302.524	530.8
302.915	542.6
303.307	520
303.698	540.8
304.089	533.6
304.48	531.8
304.872	537.8
305.263	530.2
305.655	525.4
306.046	539.4
306.438	535.4
306.829	533.2
307.221	546.6
307.613	536.4
308.005	549.4
308.397	548.8
308.789	547.4
309.181	552.4
309.573	546.6
309.965	542.4
310.357	529.6
310.749	541.8
311.142	527.4
311.534	529.6
311.926	543
312.319	535.2
312.711	529.8
313.104	542.4
313.497	536
313.889	555.4
314.282	543.6
314.675	559.2
315.068	540.4
315.461	546.2
315.854	564.6
316.247	540.6
316.64	543
317.033	533
317.405	531.4
317.798	535.2
318.192	532.6
318.585	520.6
318.979	535
319.372	526.2
319.766	533.6
320.16	542.4
320.553	537.2
320.947	551.8
321.341	533
321.735	533
322.129	530.8
322.523	552.8
322.917	525
323.311	543.4
323.705	535.4
324.099	537.8
324.494	544
324.888	540
325.282	527.2
325.677	543.2
326.071	546
326.466	542.8
326.861	533.2
327.255	543
327.65	547.4
328.045	551
328.44	534.6
328.835	536
329.23	533.6
329.625	557.4
330.02	537.6
330.415	553.8
330.81	531.6
331.206	535.8
331.601	532
331.996	541.4
332.37	557.2
332.766	524.8
333.161	554.6
333.557	527.6
333.953	533.6
334.348	752.8
334.744	537.4
335.14	540
335.536	529
335.932	545.4
336.328	536.6
336.724	541.4
337.12	536.8
337.516	533.8
337.913	532.8
338.309	545.4
338.705	537.8
339.102	538
339.498	532.4
339.895	544.2
340.291	532.4
340.688	543.6
341.085	520
341.481	535
341.878	530.2
342.275	545.2
342.672	530.2
343.069	529.4
343.466	520
343.842	540.2
344.239	529.6
344.636	527.2
345.033	528.2
345.431	525.8
345.828	540.2
346.225	529
346.623	559.2
347.02	532.6
347.418	533.4
347.816	548.4
348.213	528
348.611	537
349.009	528.2
349.407	544.2
349.805	520.6
350.203	523
350.601	540.4
350.999	528
351.397	584.2
351.795	530.2
352.193	539.8
352.57	546.4
352.969	540.6
353.367	517.2
353.766	526
354.164	529.4
354.563	544.6
354.961	529
355.36	528.2
355.759	531.6
356.158	514.2
356.557	525
356.956	525
357.355	520.4
357.754	536.4
358.153	527.8
358.552	542.6
358.951	533.6
359.35	540.2
359.75	527.4
360.149	524.2
360.527	517.6
360.926	520
361.326	529
361.726	528
362.125	516.4
362.525	535.4
362.925	524.6
363.325	526.2
363.724	528.6
364.124	523.2
364.524	520
364.924	531.8
365.324	530.2
365.725	517
366.125	528.2
366.525	532
366.904	525.6
367.304	515.2
367.705	537.2
368.105	545.6
368.506	520
368.906	532.8
369.307	526.8
369.708	534.2
370.108	524.2
370.509	540.8
370.91	518.8
371.311	526.2
371.712	528.2
372.113	523.6
372.514	517.6
372.894	531.4
373.295	525.4
373.696	531.8
374.097	535.8
374.499	543.4
374.9	534.4
375.301	515.8
375.703	523
376.105	519.2
376.506	523.2
376.908	535.6
377.309	519.8
377.711	527
378.113	523.8
378.493	536
378.895	519.2
379.297	523.8
379.699	515.2
380.102	528.4
380.504	518.8
380.906	515.8
381.308	545.4
381.71	528.4
382.113	533.2
382.515	524.6
382.918	524.4
383.299	518
383.701	537.2
384.104	526.6
384.507	511.4
384.909	525.8
385.312	519.8
385.715	525.6
386.118	522
386.521	517.6
386.924	540.2
387.327	516.2
387.709	516
388.112	515.8
388.515	530.4
388.918	518.6
389.322	537.6
389.725	519.6
390.129	532.4
390.532	529.4
390.936	519
391.339	515.2
391.743	517.4
392.125	521.6
392.529	532.2
392.933	530.6
393.337	524.6
393.74	520.2
394.144	521.6
394.548	512.8
394.953	524.4
395.357	523.6
395.761	512.6
396.144	525.8
396.548	527.6
396.952	524.4
397.357	520.8
397.761	515.4
398.166	523.2
398.57	521.8
398.975	510.4
399.379	530.2
399.763	560
400.168	519
400.572	520.4
400.977	518.2
401.382	528.6
401.787	538.8
402.192	538.2
402.597	533.2
403.002	514.2
403.386	541
403.791	543.4
404.197	518.2
404.602	525.2
405.007	523.4
405.413	523
405.818	519.2
406.224	519.2
406.608	522.4
407.014	518.2
407.42	536
407.825	525.4
408.231	531.2
408.637	528.8
409.043	534.4
409.449	521.4
409.834	518
410.24	523.4
410.646	526
411.052	533
411.458	532.2
411.865	540.6
412.271	538.2
412.677	525.8
413.062	534.2
413.469	519.6
413.875	548
414.282	530.8
414.689	527
415.095	525
415.502	515.2
415.888	531
416.294	514.2
416.701	558.4
417.108	524
417.515	532.8
417.923	527.6
418.33	538.4
418.715	530.6
419.123	514
419.53	526.6
419.937	525.6
420.345	533.4
420.752	524.8
421.16	540.2
421.546	527.6
421.953	538.4
422.361	517.2
422.769	529.8
423.177	517.8
423.585	544.4
423.992	543.6
424.379	535.4
424.787	538.2
425.195	540.4
425.603	523
426.011	535.2
426.419	538.6
426.806	531.4
427.214	533.8
427.623	542
428.031	537.8
428.44	530.8
428.848	534.2
429.235	543
429.644	531
430.053	526.2
430.461	541
430.87	549
431.279	536
431.666	527.6
432.075	533.6
432.484	532.4
432.893	528.4
433.302	534
433.711	565.4
434.099	533.6
434.508	522
434.918	517.6
435.327	529.2
435.737	532.4
436.125	528.2
436.534	531.8
436.944	527.2
437.353	536.4
437.763	538.6
438.173	522.6
438.561	542.8
438.971	513.8
439.381	534.8
439.791	518.4
440.201	511.4
440.589	521.6
440.999	531
441.409	528.4
441.819	522
442.23	534.2
442.619	536.4
443.029	525.2
443.439	530.6
443.85	530.4
444.26	543
444.649	527.2
445.06	523
445.471	526.6
445.881	532.6
446.292	542.2
446.682	541
447.092	518.8
447.503	564
447.914	521.4
448.325	521.8
448.715	526
449.126	513.6
449.537	518.2
449.948	525.6
450.338	527.6
450.75	528.8
451.161	530.2
451.572	527.6
451.984	526.8
452.374	514.2
452.786	523.8
453.197	524.8
453.609	525.4
453.999	508.2
454.411	520.4
454.823	534
455.235	526.2
455.647	521.8
456.037	526.4
456.449	514
456.862	527.4
457.274	532
457.665	514.8
458.077	526
458.489	548
458.902	521.4
459.293	521.6
459.705	522.8
460.118	526
460.53	517.8
460.921	520.6
461.334	525.8
461.747	523.4
462.16	537.6
462.551	538.2
462.964	535.4
463.377	507.8
463.79	515.4
464.182	533.6
464.595	514
465.008	523.4
465.421	536.2
465.813	527.2
466.226	525.6
466.64	516.8
467.053	554.8
467.445	528.4
467.859	530.2
468.272	525.2
468.686	537.4
469.078	532
469.492	514.6
469.906	522.4
470.298	525.8
470.712	514.8
471.126	544.8
471.54	510.8
471.933	517.2
472.347	520.4
472.761	509.2
473.175	507.8
473.568	511
473.982	502
474.397	521
474.79	518.2
475.204	527
475.619	517.6
476.033	517.2
476.426	515.6
476.841	510.2
477.256	534.2
477.649	510.8
478.064	515.2
478.479	513.6
478.872	509.2
479.287	506.6
479.702	505.6
480.118	517.4
480.511	514.4
480.927	518.4
481.342	510
481.736	516.8
482.151	516.2
482.566	525.4
482.96	512
483.376	520.6
483.792	522.4
484.186	521
484.602	514.8
485.017	520.4
485.412	512.2
485.827	523.4
486.243	518.2
486.638	535.4
487.054	528.8
487.47	530
487.865	515
488.281	516.4
488.697	507.8
489.092	522.8
489.508	511.4
489.925	524
490.32	505
490.736	517.6
491.153	516.6
491.548	520.2
491.964	523.2
492.381	501.4
492.776	526.6
493.193	507.8
493.61	509.2
494.006	518.6
494.422	520.8
494.84	510.4
495.235	519.6
495.652	519.2
496.069	514.4
496.465	507.8
496.883	514.8
497.3	537.8
497.696	520.2
498.113	523.4
498.509	513.4
498.927	513.2
499.344	512.8
499.741	507.8
500.158	521.4
500.576	522.6
500.973	511
501.39	510
501.787	505.4
502.205	522.4
502.623	511
503.02	507
503.438	504.6
503.856	517.2
504.253	513.6
504.671	520.2
505.068	512.2
505.486	508.8
505.905	528.8
506.302	516.6
506.72	527.4
507.118	511.4
507.536	515.6
507.955	515.8
508.352	517.6
508.771	514.6
509.169	524
509.587	515.8
510.006	515.2
510.404	507.6
510.823	506.6
511.221	513.4
511.64	512.4
512.038	525.8
512.457	503.8
512.877	508.8
513.275	509.8
513.694	515
514.092	511.2
514.512	518.8
514.91	522
515.33	513.6
515.749	515.8
516.148	517.4
516.568	514.8
516.966	519.4
517.386	508.4
517.785	513.4
518.205	515.4
518.603	511.8
519.024	508.2
519.444	519.6
519.843	520.2
520.263	524.8
520.662	513.4
521.082	511.4
521.481	512
521.902	515.2
522.301	513.6
522.722	516
523.121	518.2
523.542	512.4
523.963	519.2
524.362	517.4
524.783	514.8
525.183	518.6
525.604	514.6
526.003	513.4
526.425	517.8
526.824	513.8
527.246	521.4
527.646	522.8
528.067	516.8
528.467	515
528.888	522.6
529.289	513.6
529.71	508.8
530.11	513.2
530.532	507.8
530.932	512.6
531.354	503.4
531.755	547.2
532.176	517
532.577	517.6
532.999	518.4
533.4	510.6
533.822	522.6
534.223	515
534.645	510
535.046	515.6
535.468	522
535.869	524
536.292	516.6
536.693	540.4
537.115	512.6
537.516	517
537.939	515
538.34	533.2
538.742	527
539.165	517.4
539.566	516
539.989	513
540.391	509.2
540.814	518.2
541.216	515.4
541.639	516.2
542.041	524.2
542.464	511.8
542.866	506.2
543.268	504.4
543.691	515.4
544.093	520.6
544.517	528.2
544.919	510
545.343	528.8
545.745	512.6
546.147	518.2
546.571	518.2
546.974	509
547.398	516.6
547.8	518
548.224	510
548.627	510.8
549.03	518.2
549.454	510.6
549.857	505.4
550.281	512
550.684	509
551.087	514.2
551.512	518.4
551.915	519.6
552.34	515
552.743	509.8
553.146	514.8
553.571	512.6
553.975	527.8
554.399	511
554.803	556.8
555.207	511.6
555.632	506.6
556.036	513.4
556.461	506.4
556.865	514.2
557.268	506.8
557.694	509.8
558.098	522.2
558.502	514.6
558.927	514
559.332	512.8
559.736	512.2
560.162	523.2
560.566	511.2
560.992	522
561.396	512.6
561.801	518
562.227	514
562.631	517
563.036	518.8
563.462	515.6
563.867	509
564.272	510.2
564.698	519
565.103	495.4
565.508	533.8
565.935	518.8
566.34	520.8
566.745	523.4
567.172	513.8
567.577	522.2
567.982	528.8
568.409	515.2
568.815	507.4
569.22	514.2
569.626	523
570.053	503
570.459	512
570.865	514.8
571.292	518.8
571.698	513.4
572.104	504.8
572.531	506.6
572.937	518.8
573.343	512
573.75	509.6
574.177	514.6
574.583	518.8
574.99	504.8
575.396	522.2
575.824	508
576.231	517.4
576.637	504.4
577.065	526.8
577.472	509.2
577.879	500.6
578.286	525.6
578.714	504
579.121	505.8
579.528	509.8
579.935	518.6
580.364	510.2
580.771	504.2
581.178	506.6
581.585	512.8
582.014	516
582.421	507.4
582.829	502.8
583.236	516.6
583.644	498.8
584.073	508
584.481	510.6
584.889	503.2
585.296	506.6
585.726	508.8
586.134	500.8
586.542	506.4
586.95	523.6
587.358	508.8
587.787	513.4
588.196	502.2
588.604	502.8
589.012	512.2
589.421	501.6
589.851	505.8
590.259	512
590.668	505.2
591.076	537.8
591.485	506.4
591.894	504
592.324	515.2
592.733	518
593.142	501.6
593.551	517
593.96	541.6
594.369	505.4
594.8	502.4
595.209	509.4
595.618	500
596.028	506.6
596.437	498.2
596.847	505.8
597.256	511.2
597.687	516.4
598.097	508
598.507	502.4
598.917	509.6
599.327	504.6
599.736	509.4
600.146	514.8
600.556	509.6
600.988	519.8
601.398	502.4
601.808	513.2
602.219	496.2
602.629	507
603.039	505.4
603.45	530.2
603.86	509.4
604.271	521.8
604.703	516.2
605.114	510
605.525	517.2
605.935	515.4
606.346	523
606.757	505.6
607.168	511.6
607.579	509
607.99	521.2
608.402	513.4
608.813	514.2
609.224	511.8
609.636	501
610.047	509
610.48	510
610.892	515.8
611.303	519.6
611.715	509.4
612.127	506.8
612.539	505.4
612.95	514
613.362	505.6
613.774	501.4
614.186	503.2
614.599	502.2
615.011	518.4
615.423	513.6
615.835	508.2
616.248	505.6
616.66	519.2
617.073	502.8
617.485	508.8
617.898	514
618.311	516.8
618.723	505.8
619.136	541.6
619.549	521.2
619.962	533.2
620.375	507.6
620.788	514.8
621.201	501
621.614	519.6
622.028	510.4
622.441	517.4
622.854	521.4
623.268	509.2
623.681	511.6
624.095	512.6
624.509	522.6
624.922	515.6
625.336	506.4
625.728	509.2
626.142	516
626.556	534.2
626.97	515
627.384	507.4
627.799	505.2
628.213	521.4
628.627	509.6
629.041	512
629.456	507.2
629.87	513.4
630.285	520.8
630.699	527.6
631.093	506.4
631.507	513.8
631.922	525.8
632.337	527.6
632.752	500
633.167	511.6
633.582	506.2
633.997	508
634.412	513.8
634.806	513.2
635.221	502.8
635.637	521.4
636.052	497.8
636.468	511.2
636.883	534.4
637.299	513.4
637.715	499.2
638.109	514.6
638.525	499.4
638.941	521.2
639.357	513.2
639.773	519.8
640.189	510.2
640.584	506
641	512.2
641.416	502
641.832	509.4
642.249	508.2
642.665	516.2
643.06	513.4
643.477	523
643.894	499.8
644.31	506.2
644.727	505.8
645.123	513.4
645.54	502.8
645.957	511.6
646.374	518.6
646.77	507.4
647.187	530.2
647.604	506.6
648.021	498.4
648.439	505.6
648.835	508
649.252	499.4
649.67	508.2
650.088	503.2
650.484	514
650.902	509.6
651.32	520
651.738	509.6
652.134	501.6
652.552	518
652.971	518.4
653.389	514.2
653.786	516
654.204	514.4
654.622	502.8
655.019	512
655.438	509.8
655.857	506.8
656.275	510
656.673	505.2
657.091	513.4
657.51	505
657.908	512.8
658.327	519
658.746	504.4
659.144	498.2
659.563	521.4
659.982	513.4
660.38	495.2
660.8	509.8
661.219	515.2
661.617	513.2
662.037	504
662.457	516.4
662.855	493.8
663.275	533.6
663.695	507
664.094	509.6
664.514	508
664.934	505.6
665.333	514
665.753	500
666.152	498.2
666.572	497
666.993	517.6
667.392	503.8
667.812	501.6
668.212	505.6
668.632	506.6
669.053	499.2
669.453	503.8
669.874	498.6
670.273	511
670.694	496
671.116	510.8
671.515	508.8
671.937	498
672.337	504.6
672.758	498.2
673.158	500.2
673.58	495
673.98	504.6
674.402	518
674.824	503.4
675.224	507.8
675.646	503.8
676.047	491.4
676.469	504
676.869	508.4
677.292	503.6
677.693	503.8
678.115	504.4
678.516	513.6
678.939	505.2
679.34	502.4
679.762	509.6
680.164	511.4
680.586	498.2
680.988	511.8
681.411	528.4
681.812	502.8
682.236	495.6
682.637	500.6
683.061	493.4
683.462	511
683.864	501
684.288	502.4
684.69	501.2
685.114	507.6
685.516	502
685.94	500
686.342	510.2
686.766	496.2
687.168	493.6
687.571	514.4
687.995	505
688.398	500.4
688.822	498.6
689.225	514.4
689.628	517.8
690.052	501.4
690.456	508.4
690.88	507.4
691.284	495.6
691.687	520.2
692.112	490.4
692.515	498.8
692.919	497
693.344	503
693.747	501.4
694.173	500.6
694.577	501.6
694.98	500.6
695.406	502.8
695.81	510.2
696.214	507
696.64	509.4
697.044	499.8
697.448	506.8
697.874	500.2
698.279	500.2
698.684	494.2
699.11	498.2
699.514	500.2
699.919	499.2
700.324	495.6
700.75	503.6
701.156	502.8
701.561	507.6
701.987	512.6
702.393	509.8
702.798	505
703.203	507.4
703.63	502.2
704.036	502.6
704.442	502.6
704.847	496.8
705.274	500.8
705.68	501
706.086	508.2
706.492	495.8
706.92	500.4
707.326	499.2
707.732	498.4
708.139	496.6
708.545	492.8
708.973	501.2
709.38	501.4
709.786	493.2
710.193	513.4
710.6	504.4
711.028	494.2
711.435	504.8
711.842	504.4
712.249	496.6
712.656	503
713.064	506.8
713.492	495.6
713.9	502
714.307	504.2
714.715	501
715.123	506
715.53	501
715.938	504.6
716.367	508.4
716.775	498.6
717.184	500.8
717.592	499
718	512.6
718.408	527.2
718.816	540.2
719.225	511.2
719.633	505
720.042	496
720.472	506.2
720.881	511.6
721.29	508.4
721.699	500
722.108	511.2
722.517	500.4
722.926	500.4
723.335	508.2
723.744	506.4
724.154	513.8
724.563	506
724.973	508.2
725.382	501.2
725.792	499.4
726.202	497
726.612	504
727.022	503.8
727.432	503.2
779.813	504.8
780.223	538.8
780.634	498.8
781.044	496
781.454	506.4
781.865	513.8
782.276	495.4
782.686	508.4
783.097	498.6
783.508	507.2
783.919	508.2
784.33	514.8
784.741	512
785.152	495.6
785.563	481.6
785.974	502.4
786.386	512
786.776	501
787.188	504.8
787.599	503
788.011	507.4
788.423	505.8
788.835	497.8
789.247	491.2
789.659	503
790.071	496.2
790.483	531.8
790.874	506.2
791.286	502
791.699	495
792.111	502.2
792.524	507.4
792.937	498.6
793.349	494
793.741	496.8
794.154	501.4
794.567	517.8
794.98	500.6
795.393	495
795.785	515.2
796.198	498.4
796.612	503.4
797.026	497.6
797.439	487
797.831	501
798.245	498.2
798.659	495.6
799.073	501.8
799.487	501
799.88	501
800.294	498.6
800.708	495.8
801.123	497
801.516	518.4
801.93	499.4
802.345	493.8
802.76	501.4
803.153	513.6
803.568	512.2
803.983	509.2
804.377	504.8
804.792	488.2
805.207	485.2
805.601	500.4
806.016	527.2
806.432	498.2
806.826	524.6
807.242	510
807.658	507.2
808.052	493
808.468	497.4
808.884	495.4
809.279	495.8
809.695	520.8
810.111	518.6
810.506	501
810.922	512.8
811.339	491.8
811.734	511.6
812.151	495.8
812.546	490.8
812.963	492
813.38	502.4
813.776	502
814.193	512
814.589	491
815.006	496.4
815.402	491.6
815.82	493.2
816.237	502
816.633	499
817.051	492.2
817.448	507.8
817.866	487.8
818.262	515.8
818.68	492.6
819.077	495.4
819.495	495.6
819.892	531.6
820.311	491.6
820.708	501.2
821.127	495.2
821.524	515
821.943	498.2
822.34	513
822.759	500.8
823.157	495
823.576	510.8
823.974	500.2
824.393	582.4
824.791	506
825.189	492.8
825.609	497.8
826.007	504.4
826.427	487.6
826.826	495.4
827.246	497.6
827.644	484.6
828.043	499.6
828.463	497.6
828.862	505.8
829.261	501
829.682	488.8
830.081	499.8
830.502	498.2
830.901	488
831.301	497.4
831.722	495
832.121	498.4
832.521	497
832.943	499.6
833.342	494.2
833.742	492.6
834.164	500.2
834.564	478.8
834.965	495.6
835.386	497.4
835.787	496.2
836.188	503.4
836.588	497.2
837.01	500
837.411	492
837.812	501
838.213	497.2
838.636	489
839.037	549
839.438	497
839.84	492.8
840.263	505.2
840.664	511.8
841.066	496.4
841.468	498.4
841.891	491.2
842.293	504.8
842.695	498
843.098	510.6
843.5	499.2
843.902	495.2
844.326	501.2
844.729	500.6
845.131	506.6
845.534	500.6
845.937	504.6
846.34	519.4
846.764	489.8
847.167	490
847.571	489.8
847.974	497
848.377	495.4
848.781	533.4
849.184	508.8
849.588	490.2
849.992	491.6
850.396	502
850.821	512.4
851.225	499
851.63	500.8
852.034	504.6
852.438	497.2
852.843	521.8
853.247	492
853.652	488
854.057	502.8
854.462	496.4
854.867	499
855.272	516.6
855.677	498.4
856.082	494.4
856.487	491.8
856.893	503.2
857.298	494.6
857.704	488.4
858.11	498
858.516	506.4
858.922	493
859.328	507
859.734	495.2
860.14	499.8
860.525	499.4
860.931	486.6
861.338	487.6
861.745	499
862.151	502.2
862.558	501.4
862.965	492
863.372	495.8
863.779	497.4
864.186	514.2
864.572	500.4
864.98	512.8
865.387	513.6
865.795	497.8
866.203	501.4
866.61	491.4
867.018	506.2
867.405	498.8
867.813	498.2
868.221	493.2
868.63	490
869.038	505.6
869.425	530
869.834	500
870.243	496.8
870.652	491
871.039	496.8
871.448	500.8
871.857	500.4
872.266	501.4
872.654	500.4
873.064	496.4
873.473	502.4
873.883	492.6
874.271	494
874.681	507.8
875.091	482.2
875.48	508.8
875.89	514.4
876.3	490
876.689	488.4
877.1	496.6
877.51	498.8
877.9	512.4
878.31	492
878.721	516
879.111	497.8
879.522	498.4
879.933	489.2
880.323	483.4
880.734	486.6
881.125	498.6
881.536	492.4
881.948	489.8
882.338	494.8
882.75	501.4
883.141	493.4
883.553	500.6
883.944	510
884.356	503.4
884.769	496.8
885.16	496.8
885.573	499
885.964	487.8
886.377	493
886.768	496.6
887.181	495.2
887.573	488.8
887.987	498.4
888.378	506.4
888.792	499.2
889.184	537.2
889.598	489
889.99	498.2
890.383	496.4
890.797	490.4
891.19	508.8
891.604	491.2
891.997	490
892.411	491.4
892.805	489
893.198	490.8
893.613	483.2
894.006	499.4
894.421	491.4
894.815	493.4
895.209	499.2
895.624	531.8
896.018	514
896.412	494
896.828	490.4
897.222	488
897.617	500.4
898.033	514.4
898.427	494.2
898.822	490.4
899.239	488.8
899.634	487.4
900.029	511.6
900.424	483.8
900.841	483.8
901.236	503.4
901.632	506.2
902.027	540.8
902.445	509.4
902.841	498.6
903.237	493.4
903.633	514
904.05	501.2
904.447	497
904.843	506.8
905.24	496.4
905.636	489
906.033	495.4
906.451	503.2
906.848	493
907.246	494
907.643	493.8
908.04	495.2
908.438	510.8
908.835	495
909.254	491.2
909.652	494.4
910.05	492.6
910.448	492.6
910.846	494.4
911.244	488.2
911.643	490.4
912.041	490.8
912.44	508.4
912.839	480
913.237	492.2
913.636	481
914.035	495.2
914.434	494.8
914.834	499
915.233	493.4
915.633	486.2
916.032	481.4
916.432	484.8
916.832	501.4
917.232	483.4
917.632	488.4
918.032	493.4
918.432	490.6
918.833	493.2
919.233	498.8
919.634	478
920.035	498.4
920.436	489.4
920.837	489.8
921.238	493.6
921.639	488.4
922.019	497.6
922.42	494.8
922.822	500
923.224	495.2
923.625	494.2
924.027	490.8
924.429	514.8
924.81	499.4
925.212	496.6
925.615	500.2
926.017	493.4
926.42	499.4
926.801	494.2
927.204	496
927.607	494.8
928.01	503.8
928.413	489.2
928.795	482.2
929.199	491
929.602	489.6
930.006	484.6
930.388	481.8
930.792	493
931.196	496.6
931.579	514.4
931.983	485.6
932.388	526.6
932.771	497
933.176	489.2
933.58	495.6
933.964	489.6
934.369	486.4
934.774	503.4
935.158	493.4
935.563	486.2
935.947	498.2
936.353	502.2
936.759	496
937.143	499.2
937.549	495.4
937.934	507.4
938.34	512
938.746	488.2
939.131	491.6
939.538	487
939.923	499.4
940.33	492.8
940.716	492.8
941.123	499.6
941.508	505
941.916	508
942.302	506.2
942.709	481
943.096	486
943.503	500
943.89	495.2
944.298	488.6
944.685	509.2
945.072	490.8
945.48	500.2
945.867	489.4
946.276	486.2
946.663	507.2
947.051	506.4
947.46	500.6
947.848	497.6
948.257	484.6
948.645	488.4
949.033	487
949.443	484.8
949.831	527.6
950.22	485.2
950.63	495.4
951.018	514.4
951.407	487.8
951.796	492.2
952.207	495.6
952.596	494.4
952.985	488.8
953.375	530.4
953.786	484.6
954.176	489.2
954.566	503.2
954.956	483
955.367	494.8
955.758	505.2
956.148	483.4
956.539	500.4
956.929	486
957.341	485
957.732	491.6
958.123	496
958.515	485
958.906	496
959.297	484.6
959.689	486.2
960.102	488.6
960.494	496.8
960.886	484
961.278	488.8
961.67	504.8
962.062	517.2
962.455	496.2
962.847	492.2
963.24	492
963.633	498.8
964.026	481.4
964.419	497.6
964.812	501.6
965.206	487.2
965.599	493
965.993	486
966.386	489.6
966.78	502.8
967.174	501.4
967.569	491
967.963	491.6
968.357	479.6
968.752	491.2
969.146	490.6
969.541	484.4
969.936	482.8
970.331	488.4
970.705	494.6
971.1	496.4
971.496	501.8
971.892	482.4
972.287	494.6
972.683	495
973.079	479.6
973.454	499
973.85	488.8
974.247	498.2
974.643	511.6
975.04	494.8
975.415	494.4
975.812	486.6
976.209	491.6
976.607	477.8
976.982	499
977.38	507.2
977.778	493
978.175	486
978.552	494.8
978.95	497
979.348	502.6
979.725	530.8
980.123	491.6
980.522	494.8
980.899	487.2
981.298	491.4
981.697	495.8
982.075	492.4
982.474	489.6
982.852	491.8
983.251	488.2
983.651	490.8
984.029	497.4
984.429	490.2
984.808	479.4
985.208	492
985.609	488.6
985.987	484.8
986.388	489.4
986.768	489.6
987.168	487
987.548	499.2
987.949	490.8
988.329	502.8
988.731	489.8
989.111	490.8
989.491	486
989.893	495.2
990.273	493.4
990.676	483.6
991.057	481.6
991.459	486.8
991.84	495
992.221	492
992.624	502
993.006	487
993.388	496.6
993.791	500
994.173	493.4
994.576	518.8
994.959	483.2
995.341	486.8
995.724	489.8
996.128	488.2
996.511	489.4
996.894	486.6
997.298	496.2
997.681	502.8
998.065	499
998.448	489.6
998.854	502.4
999.237	481
999.621	499.2
1000.01	502.4
1000.39	488.8
1000.8	483.2
1001.18	495.8
1001.56	491.8
1001.95	492.6
1002.33	492
1002.72	485.4
1003.13	493.8
1003.51	489.4
1003.9	494
1004.28	496.6
1004.67	480.6
1005.06	485.6
1005.44	510.6
1005.83	475.6
1006.21	477.2
1006.6	484
1006.99	494.4
1007.37	485.4
1007.76	484.4
1060.12	488.6
1060.51	485.4
1060.89	492.4
1061.28	494.4
1061.67	500.6
1062.06	500.2
1062.45	491.6
1062.83	484.4
1063.22	491.8
1063.61	522.4
1064	491.4
1064.39	487.2
1064.78	488.4
1065.14	499.8
1065.53	492.2
1065.92	487.2
1066.31	487.2
1066.7	492.8
1067.09	502.6
1067.46	499.2
1067.85	493.6
1068.24	475.8
1068.63	493.2
1069.02	490.2
1069.39	491.4
1069.78	479.8
1070.17	486.2
1070.57	489
1070.93	487.4
1071.33	479.8
1071.72	489.8
1072.11	480.2
1072.48	490.6
1072.87	490.4
1073.26	489
1073.64	486
1074.03	480.2
1074.4	487.6
1074.79	483.2
1075.19	493.2
1075.56	487.4
1075.95	494.6
1076.34	481.6
1076.72	486.8
1077.11	490.6
1077.48	502.8
1077.88	493.4
1078.25	492
1078.64	488.4
1079.02	489.4
1079.41	500.2
1079.78	484.4
1080.18	485.2
1080.55	537.6
1080.95	489.6
1081.32	486.2
1081.72	491.8
1082.09	486.8
1082.49	492.2
1082.86	486.4
1083.24	491.6
1083.63	487.6
1084.01	491
1084.38	494.4
1084.78	488.2
1085.16	491.8
1085.55	495.6
1085.93	495.4
1086.31	469.6
1086.7	520.6
1087.08	488.8
1087.46	495.8
1087.83	481.4
1088.23	493.8
1088.61	478.4
1088.99	487.6
1089.36	497.6
1089.76	488.8
1090.14	485.8
1090.52	488.8
1090.9	485.6
1091.27	491
1091.67	502.4
1092.05	490.2
1092.43	484.8
1092.81	489.8
1093.19	492.6
1093.57	477
1093.95	491.6
1094.35	501.2
1094.73	504.4
1095.11	486.2
1095.49	478.8
1095.87	487.8
1096.25	499.6
1096.63	498
1097.01	476.8
1097.39	497.2
1097.77	487.6
1098.15	490.4
1098.53	482.8
1098.91	490.4
1099.29	480.6
1099.68	496
1100.06	499.6
1100.44	495.6
1100.82	490.8
1101.18	488.6
1101.56	483.6
1101.95	489.8
1102.33	490.4
1102.71	491.2
1103.1	481.4
1103.48	483.8
1103.86	481.6
1104.22	489
1104.61	483.4
1104.99	485
1105.38	475.8
1105.76	491
1106.12	484.4
1106.51	519.4
1106.89	502.2
1107.26	490
1107.64	498.2
1108.03	490.6
1108.41	490.2
1108.78	500
1109.16	494.6
1109.55	494.4
1109.91	480.4
1110.3	480.4
1110.69	500
1111.05	492.4
1111.44	492.2
1111.8	488.8
1112.19	489
1112.58	489.6
1112.94	487.6
1113.33	485.6
1113.7	489.4
1114.09	481.2
1114.45	478.4
1114.84	490.2
1115.21	496.6
1115.6	484.8
1115.96	494.6
1116.35	498.4
1116.72	488
1117.11	494.2
1117.48	486.2
1117.85	488
1118.24	493.8
1118.6	488.4
1118.99	488.2
1119.36	495.2
1119.73	484
1120.12	492.2
1120.49	478
1120.86	496
1121.25	485.4
1121.62	478
1121.99	482
1122.38	496.8
1122.76	492.8
1123.13	487.6
1123.5	490.4
1123.89	496.6
1124.26	472.2
1124.63	491.6
1125	486.8
1125.4	474.4
1125.77	485.8
1126.14	471.2
1126.51	482.4
1126.88	496.8
1127.26	484.8
1127.63	476.4
1128.02	487.6
1128.4	481.2
1128.77	482.6
1129.14	483.2
1129.52	490.2
1129.89	489.2
1130.26	477.2
1130.64	478.6
1131.01	481.6
