#lambda/nm	C1
208.295	460.2
208.67	423.8
209.045	397
209.419	399
209.794	543.2
210.169	520.2
210.544	627.2
210.919	543.4
211.295	536.2
211.67	539.4
212.045	531.8
212.421	536
212.796	563.8
213.172	532.2
213.547	536.4
213.923	532.8
214.299	537.2
214.675	537.2
215.051	537.4
215.427	546.8
215.803	559.2
216.179	545
216.555	530.8
216.932	548.4
217.308	545.4
217.684	538.8
218.061	540.6
218.438	538.8
218.814	534.4
219.191	547.4
219.568	532.4
219.945	537.4
220.322	544.4
220.699	535.2
221.076	541.2
221.453	543.2
221.83	533.2
222.208	532.4
222.585	535
222.962	537.8
223.34	540.2
223.717	532.2
224.095	540.4
224.473	529
224.851	526.2
225.229	531
225.607	550.2
225.985	529.4
226.363	540.6
226.741	542
227.119	535.6
227.497	542
227.876	521.8
228.254	540.6
228.633	542
229.011	538.4
229.39	549
229.769	545.6
230.148	545.8
230.527	546.8
230.905	538
231.284	546.4
231.664	536.4
232.043	558.2
232.422	542.8
232.801	535
233.181	546.2
233.56	536.8
233.94	532.6
234.319	531.6
234.699	535.6
235.079	567.6
235.458	571.2
235.838	555.4
236.218	539
236.598	522.8
236.978	538
237.358	535.8
237.738	534.4
238.119	545
238.499	532.6
238.88	531.8
239.26	554.2
239.641	530.6
240.021	539.6
240.402	533.8
240.783	532.6
241.163	539.2
241.544	540.8
241.925	535.6
242.306	541.8
242.687	536.8
243.069	544.4
243.45	548.4
243.831	528.2
244.212	535
244.594	565.4
244.975	540
245.357	538.6
245.739	538.4
246.12	543
246.502	542.4
246.884	525.2
247.266	534.4
247.648	536.4
248.03	559.4
248.412	544.6
248.794	548.2
249.176	533
249.559	545.4
249.941	539
250.323	532.8
250.706	530.2
251.089	534.4
251.471	541.4
251.854	536.8
252.237	535
252.62	547.4
253.002	543.2
253.385	540.2
253.769	549.8
254.152	532
254.535	537.6
254.918	532.2
255.301	534.2
255.685	532.6
256.068	534.4
256.452	551.4
256.835	549.8
257.219	544
257.603	546.6
257.986	529.6
258.37	539.6
258.754	527.6
259.138	543.2
259.522	538.4
259.906	541
260.29	541.4
260.675	529.8
261.059	536.8
261.443	536
261.828	536.8
262.212	537
262.597	528.4
262.981	531.4
263.366	542.2
263.751	537.6
264.136	526.8
264.521	523.4
264.906	523.8
265.291	544.4
265.676	532.8
266.061	545
266.446	544
266.831	528.8
267.217	548.2
267.602	534
267.987	534.4
268.373	522
268.759	529.8
269.144	528.6
269.53	534.6
269.916	514
270.302	528.2
270.688	530.4
271.074	535
271.46	541.4
271.846	560
272.232	537.2
272.618	525.2
273.004	534
273.391	547.8
273.777	551.6
274.164	543.4
274.55	544.8
274.937	544
275.324	533.6
275.71	536.2
276.097	539
276.484	535.6
276.871	543.8
277.258	545.4
277.645	534.8
278.032	540.4
278.419	538.2
278.807	539
279.194	530.6
279.581	527.8
279.969	542.4
280.356	533.6
280.744	538.2
281.131	555.2
281.519	544
281.907	535.8
282.295	529.8
282.682	551.6
283.07	539.4
283.458	541.2
283.846	546.2
284.235	549.2
284.623	541.4
285.011	535.6
285.399	543.2
285.788	532
286.176	530.4
286.565	546.6
286.953	537
287.342	541.2
287.731	532.8
288.119	530
288.508	535.8
288.897	537.6
289.286	532.8
289.675	546.2
290.064	540.6
290.453	538.8
290.821	533.2
291.21	548
291.599	533.8
291.989	526.4
292.378	549.6
292.768	555.2
293.157	543.8
293.547	541.6
293.936	530.2
294.326	534.4
294.716	544.2
295.106	532.6
295.496	547
295.886	539.6
296.276	536
296.666	529.6
297.056	534.6
297.446	530.4
297.836	558.6
298.227	532.6
298.617	536.4
299.008	550.8
299.398	537.2
299.789	538.6
300.179	543.6
300.57	546.2
300.961	538
301.352	542.4
301.742	547.4
302.133	539.6
302.524	537.6
302.915	537
303.307	531.6
303.698	545
304.089	537.6
304.48	528.8
304.872	536.6
305.263	537
305.655	528
306.046	546.2
306.438	545
306.829	526.4
307.221	552.4
307.613	544.6
308.005	547.6
308.397	545.8
308.789	555
309.181	561.4
309.573	562
309.965	543.6
310.357	536.8
310.749	547
311.142	522.4
311.534	535.8
311.926	540
312.319	531.6
312.711	528.6
313.104	546
313.497	536.4
313.889	567.4
314.282	548.2
314.675	563
315.068	538.4
315.461	547
315.854	558.8
316.247	538.8
316.64	537.8
317.033	538.8
317.405	543
317.798	538.2
318.192	544
318.585	532.2
318.979	546.8
319.372	532.4
319.766	534.6
320.16	549.2
320.553	551.4
320.947	553.4
321.341	523
321.735	541.2
322.129	528.8
322.523	559
322.917	532.4
323.311	549.2
323.705	532.6
324.099	536.6
324.494	549.8
324.888	542
325.282	541.6
325.677	551.2
326.071	533.4
326.466	542.8
326.861	543.2
327.255	546.6
327.65	560
328.045	553
328.44	538
328.835	539
329.23	531.2
329.625	563.8
330.02	535.2
330.415	553.2
330.81	537.8
331.206	542
331.601	533
331.996	542
332.37	560
332.766	526.4
333.161	554.6
333.557	534.8
333.953	548.2
334.348	762.4
334.744	542.2
335.14	530
335.536	535
335.932	549.6
336.328	531.4
336.724	544.6
337.12	535.2
337.516	541.2
337.913	538.6
338.309	551
338.705	534.4
339.102	549.4
339.498	532.4
339.895	545.8
340.291	535.6
340.688	541.2
341.085	529
341.481	534.4
341.878	530.8
342.275	557
342.672	530.4
343.069	539.8
343.466	521.4
343.842	549.4
344.239	529.6
344.636	541.8
345.033	529.8
345.431	538.4
345.828	537
346.225	527.2
346.623	560.4
347.02	534.2
347.418	542.4
347.816	555
348.213	533
348.611	540.4
349.009	532
349.407	550.6
349.805	528.4
350.203	530.2
350.601	549
350.999	530.8
351.397	568.6
351.795	539.8
352.193	541.4
352.57	539.4
352.969	537.2
353.367	524.6
353.766	532.2
354.164	528
354.563	538.8
354.961	528.8
355.36	528.4
355.759	532.2
356.158	524
356.557	527.8
356.956	523
357.355	523.4
357.754	536.4
358.153	530.2
358.552	548.6
358.951	528.4
359.35	549
359.75	531.2
360.149	526.8
360.527	522
360.926	524.8
361.326	521
361.726	531.8
362.125	527.4
362.525	537.8
362.925	533
363.325	523.8
363.724	522.8
364.124	517.4
364.524	519.6
364.924	520
365.324	528.6
365.725	516.6
366.125	528.8
366.525	517.4
366.904	525.2
367.304	510.2
367.705	538.2
368.105	541
368.506	530.2
368.906	534.2
369.307	525.6
369.708	535.6
370.108	515.8
370.509	532
370.91	525.4
371.311	528.2
371.712	535
372.113	519.8
372.514	522.2
372.894	532.8
373.295	529.6
373.696	543.4
374.097	538.2
374.499	556
374.9	534.6
375.301	520.8
375.703	530.6
376.105	523.4
376.506	533
376.908	533.8
377.309	536.4
377.711	533.4
378.113	522.6
378.493	531.4
378.895	531.8
379.297	539
379.699	521
380.102	529.6
380.504	528.6
380.906	528.8
381.308	554.2
381.71	536.6
382.113	537.8
382.515	534
382.918	530
383.299	531.4
383.701	537.4
384.104	538
384.507	511.8
384.909	534.4
385.312	521.8
385.715	524.4
386.118	527.8
386.521	517.8
386.924	543.6
387.327	521.2
387.709	517.8
388.112	517.8
388.515	527.4
388.918	525.2
389.322	528.4
389.725	524.8
390.129	545
390.532	535
390.936	529.4
391.339	519
391.743	527.2
392.125	522.8
392.529	534.2
392.933	535.6
393.337	533.8
393.74	525.2
394.144	528.6
394.548	521.6
394.953	529.6
395.357	532.8
395.761	528.2
396.144	526.4
396.548	523.2
396.952	530.6
397.357	527.2
397.761	523.4
398.166	526.2
398.57	522.8
398.975	513
399.379	527.6
399.763	577.6
400.168	526.8
400.572	531.4
400.977	526.8
401.382	543
401.787	538.6
402.192	540.8
402.597	544.4
403.002	522.8
403.386	536.4
403.791	542
404.197	518.4
404.602	527.6
405.007	526.2
405.413	533.6
405.818	527
406.224	524.6
406.608	523.2
407.014	514.4
407.42	548.6
407.825	522.6
408.231	535.2
408.637	536.4
409.043	542.2
409.449	521.4
409.834	520.4
410.24	526.8
410.646	545.6
411.052	532.2
411.458	527.4
411.865	534.2
412.271	538.2
412.677	536.6
413.062	532.6
413.469	519.8
413.875	549.4
414.282	543.2
414.689	532.8
415.095	539
415.502	523.6
415.888	526.6
416.294	520
416.701	560.6
417.108	525.6
417.515	534.4
417.923	529.4
418.33	545.8
418.715	532.6
419.123	525
419.53	527
419.937	527.2
420.345	538.8
420.752	522.8
421.16	536.8
421.546	528
421.953	536.2
422.361	530.2
422.769	528.4
423.177	525
423.585	549.8
423.992	544.6
424.379	535
424.787	541.2
425.195	547.4
425.603	536.4
426.011	540.6
426.419	538.8
426.806	527
427.214	534.8
427.623	539.8
428.031	539.4
428.44	542.4
428.848	547
429.235	546.8
429.644	530.2
430.053	529
430.461	542.2
430.87	556.2
431.279	531
431.666	534.6
432.075	532.4
432.484	532.2
432.893	530.8
433.302	541.2
433.711	567.4
434.099	538.6
434.508	528.2
434.918	521.4
435.327	540.4
435.737	541
436.125	532.4
436.534	526.8
436.944	531.8
437.353	527.4
437.763	556.2
438.173	525
438.561	536.8
438.971	513.6
439.381	527.2
439.791	536.2
440.201	520.4
440.589	527
440.999	538.8
441.409	528.2
441.819	516.6
442.23	533.4
442.619	534.8
443.029	526
443.439	534
443.85	542
444.26	535.6
444.649	534
445.06	530.8
445.471	522.4
445.881	529
446.292	538
446.682	544.6
447.092	515.6
447.503	567.6
447.914	529
448.325	535
448.715	527.2
449.126	527.2
449.537	529.4
449.948	526.8
450.338	522.6
450.75	538.8
451.161	525
451.572	535.8
451.984	517.8
452.374	521.2
452.786	530.2
453.197	527.6
453.609	532.6
453.999	514.8
454.411	514
454.823	527.8
455.235	526.4
455.647	518.8
456.037	521.6
456.449	500.8
456.862	523.2
457.274	527.6
457.665	517.6
458.077	526
458.489	549
458.902	519.2
459.293	520
459.705	527.6
460.118	516.8
460.53	519.8
460.921	518.8
461.334	525.4
461.747	520
462.16	523.2
462.551	530.4
462.964	533.6
463.377	508.6
463.79	517
464.182	531.6
464.595	519.2
465.008	526.6
465.421	526.8
465.813	514
466.226	530.4
466.64	517.2
467.053	562
467.445	532.4
467.859	538.8
468.272	528.4
468.686	534.6
469.078	527
469.492	518.2
469.906	522.6
470.298	527
470.712	518.2
471.126	549.2
471.54	515.6
471.933	514
472.347	513.6
472.761	518.2
473.175	520.6
473.568	521.8
473.982	514.6
474.397	527.6
474.79	527.2
475.204	522
475.619	523.2
476.033	521.6
476.426	526
476.841	516
477.256	547.6
477.649	511.8
478.064	515.2
478.479	525.8
478.872	522
479.287	518.4
479.702	520.6
480.118	519
480.511	517.4
480.927	521.8
481.342	513
481.736	524.4
482.151	515.4
482.566	533
482.96	523.2
483.376	522.6
483.792	514
484.186	525.2
484.602	524.2
485.017	512
485.412	519
485.827	531.4
486.243	520.2
486.638	540.8
487.054	525.4
487.47	535
487.865	517.8
488.281	526.8
488.697	517.4
489.092	524.4
489.508	516.2
489.925	525.4
490.32	519.2
490.736	522.8
491.153	518.4
491.548	524.6
491.964	522.4
492.381	505.8
492.776	526.2
493.193	521.4
493.61	523
494.006	518.8
494.422	523.2
494.84	513.4
495.235	527.2
495.652	527.6
496.069	519.6
496.465	508.8
496.883	520.6
497.3	540
497.696	520.2
498.113	524.8
498.509	516
498.927	515.2
499.344	520
499.741	523.8
500.158	529.2
500.576	528.8
500.973	522.6
501.39	512.4
501.787	515
502.205	517.2
502.623	514.2
503.02	502.6
503.438	509.6
503.856	514.2
504.253	513.2
504.671	524.2
505.068	511.2
505.486	518.4
505.905	529.8
506.302	519.4
506.72	530.6
507.118	506.6
507.536	519.6
507.955	519.4
508.352	519.4
508.771	523.6
509.169	523.6
509.587	513.4
510.006	523
510.404	502.6
510.823	500.4
511.221	521
511.64	514.2
512.038	526
512.457	516.8
512.877	517
513.275	510.4
513.694	518.6
514.092	512.2
514.512	514.6
514.91	529.6
515.33	516.2
515.749	516.6
516.148	519.8
516.568	519.8
516.966	512.2
517.386	514.8
517.785	513.8
518.205	508.2
518.603	518.8
519.024	504
519.444	515.4
519.843	522
520.263	526.4
520.662	524.4
521.082	516.2
521.481	516.6
521.902	522.2
522.301	526.8
522.722	523.6
523.121	512.4
523.542	513.8
523.963	524
524.362	522.2
524.783	514.6
525.183	516.6
525.604	516.2
526.003	511.6
526.425	514.4
526.824	521.8
527.246	517
527.646	523.8
528.067	520
528.467	521.2
528.888	522.8
529.289	517.2
529.71	519.6
530.11	515.4
530.532	516
530.932	505.2
531.354	508.6
531.755	540.6
532.176	524.6
532.577	513.8
532.999	522.8
533.4	508.6
533.822	525.8
534.223	524.4
534.645	519.6
535.046	515.4
535.468	518.2
535.869	531.2
536.292	513
536.693	547
537.115	523
537.516	517.8
537.939	508.8
538.34	532.8
538.742	525.6
539.165	521.6
539.566	516
539.989	512
540.391	516.6
540.814	515.6
541.216	524.8
541.639	511.8
542.041	527.8
542.464	510.6
542.866	509.4
543.268	510.6
543.691	515
544.093	521.2
544.517	534
544.919	507.6
545.343	537.6
545.745	513.6
546.147	519.4
546.571	517.6
546.974	508.2
547.398	516
547.8	524.4
548.224	514.4
548.627	507.4
549.03	519
549.454	510.8
549.857	503.8
550.281	512.8
550.684	517.4
551.087	525.4
551.512	520.2
551.915	523.4
552.34	516.8
552.743	505.2
553.146	513.4
553.571	510.6
553.975	522
554.399	509.8
554.803	555.2
555.207	517.8
555.632	514
556.036	510.6
556.461	507.8
556.865	519.4
557.268	506.2
557.694	503.6
558.098	517.2
558.502	509.4
558.927	510.2
559.332	518.6
559.736	515.6
560.162	516.2
560.566	515
560.992	515.8
561.396	506
561.801	508.2
562.227	516.6
562.631	506.6
563.036	513.4
563.462	519
563.867	520
564.272	507.4
564.698	515.6
565.103	508.4
565.508	534.4
565.935	514.2
566.34	508.6
566.745	525.4
567.172	509
567.577	524
567.982	522.4
568.409	525.6
568.815	505.4
569.22	514.2
569.626	527.8
570.053	508.4
570.459	512.6
570.865	521.4
571.292	518.2
571.698	514.4
572.104	498.2
572.531	510.8
572.937	514.2
573.343	521
573.75	513.8
574.177	516.6
574.583	525.2
574.99	516
575.396	523.2
575.824	514.2
576.231	520.2
576.637	507.6
577.065	542.4
577.472	506.2
577.879	515.4
578.286	525.2
578.714	504.4
579.121	513
579.528	506.6
579.935	520.4
580.364	505.2
580.771	501.6
581.178	511.2
581.585	515.2
582.014	520.6
582.421	507.4
582.829	508.8
583.236	528.8
583.644	511.8
584.073	508.4
584.481	519.8
584.889	509.8
585.296	513.6
585.726	521.2
586.134	508.6
586.542	508.6
586.95	528
587.358	508.4
587.787	517.4
588.196	500
588.604	513
589.012	511.6
589.421	499.8
589.851	511.6
590.259	516
590.668	508
591.076	541.6
591.485	506.2
591.894	510.8
592.324	527.4
592.733	528
593.142	499.6
593.551	514
593.96	509.2
594.369	507
594.8	514
595.209	512.2
595.618	505
596.028	514
596.437	509.8
596.847	512
597.256	516.6
597.687	519.4
598.097	506.6
598.507	504.2
598.917	513.8
599.327	516
599.736	513.4
600.146	513.6
600.556	522.4
600.988	520.8
601.398	510.6
601.808	524
602.219	500.2
602.629	506.8
603.039	520.4
603.45	529.8
603.86	508.4
604.271	520.6
604.703	512.8
605.114	517.6
605.525	517
605.935	519.2
606.346	528.6
606.757	518.6
607.168	522.8
607.579	515.2
607.99	521.8
608.402	509.6
608.813	518.4
609.224	517.6
609.636	510.8
610.047	515.8
610.48	523
610.892	521.2
611.303	526.8
611.715	513.4
612.127	514.4
612.539	516.4
612.95	515.8
613.362	511.6
613.774	507.8
614.186	514.2
614.599	516.4
615.011	525.4
615.423	525.6
615.835	516.4
616.248	514.2
616.66	529.6
617.073	514.4
617.485	526.6
617.898	528.4
618.311	527.2
618.723	526.4
619.136	540.8
619.549	534.2
619.962	543.8
620.375	518.6
620.788	524.8
621.201	519.8
621.614	535.8
622.028	532.6
622.441	535.2
622.854	541
623.268	526.6
623.681	527.6
624.095	538
624.509	528.4
624.922	535.8
625.336	520.8
625.728	535.8
626.142	542.4
626.556	539.2
626.97	535.6
627.384	525.6
627.799	526
628.213	539.6
628.627	535.6
629.041	526.2
629.456	525.4
629.87	530.6
630.285	537.2
630.699	535.8
631.093	519.4
631.507	534.8
631.922	535.4
632.337	543.6
632.752	535.2
633.167	531.6
633.582	525.2
633.997	527.2
634.412	529.4
634.806	531.2
635.221	527.6
635.637	541.2
636.052	524.2
636.468	520.2
636.883	544
637.299	536
637.715	521.6
638.109	526.2
638.525	516.2
638.941	537.6
639.357	533
639.773	540
640.189	527.4
640.584	529.6
641	530.6
641.416	518.6
641.832	522.2
642.249	525.4
642.665	524
643.06	527.2
643.477	534
643.894	520.8
644.31	516
644.727	518.2
645.123	519
645.54	518.8
645.957	511.8
646.374	530
646.77	513.6
647.187	546.8
647.604	522.2
648.021	517.8
648.439	520.8
648.835	530.2
649.252	516.8
649.67	513.6
650.088	521.4
650.484	520.6
650.902	524
651.32	521
651.738	517.4
652.134	519.6
652.552	526.6
652.971	515
653.389	517
653.786	525
654.204	518.2
654.622	505.4
655.019	513.4
655.438	521
655.857	511.2
656.275	509.8
656.673	502
657.091	516.2
657.51	504.4
657.908	519.8
658.327	529.8
658.746	505.2
659.144	501.4
659.563	527.4
659.982	515.8
660.38	509.6
660.8	510.2
661.219	520.6
661.617	511.8
662.037	510
662.457	524
662.855	504.2
663.275	542.4
663.695	513
664.094	503.4
664.514	520.6
664.934	504.6
665.333	525.6
665.753	510.8
666.152	506.8
666.572	506
666.993	521
667.392	509
667.812	504.8
668.212	510.4
668.632	526.4
669.053	513.2
669.453	512.2
669.874	519.2
670.273	511.6
670.694	510
671.116	521.6
671.515	521.6
671.937	511.4
672.337	507.4
672.758	503.6
673.158	515.8
673.58	500.4
673.98	511.2
674.402	522.6
674.824	517.8
675.224	508
675.646	508
676.047	509.8
676.469	508.6
676.869	514.8
677.292	507.6
677.693	513.2
678.115	503.4
678.516	513.2
678.939	517.6
679.34	512.6
679.762	516.6
680.164	507.6
680.586	502.6
680.988	515.4
681.411	533.6
681.812	512
682.236	504.8
682.637	504
683.061	502
683.462	505.8
683.864	506.8
684.288	512
684.69	496.8
685.114	512
685.516	517
685.94	502.2
686.342	517.2
686.766	501.4
687.168	501.2
687.571	527
687.995	511.4
688.398	503.4
688.822	506.8
689.225	521.6
689.628	524.8
690.052	501
690.456	519
690.88	511
691.284	505
691.687	517
692.112	501.8
692.515	511.4
692.919	511.6
693.344	514.2
693.747	511.4
694.173	488.6
694.577	515.2
694.98	504.2
695.406	504.8
695.81	505.2
696.214	509.6
696.64	507.8
697.044	510.6
697.448	514
697.874	508.8
698.279	504.4
698.684	491.8
699.11	498.2
699.514	502.4
699.919	505.2
700.324	498.4
700.75	514.4
701.156	495.6
701.561	521.6
701.987	512.6
702.393	520.6
702.798	513.8
703.203	505.6
703.63	503.4
704.036	499.2
704.442	512
704.847	499.2
705.274	506.4
705.68	509
706.086	514.6
706.492	503
706.92	504
707.326	513.8
707.732	512.8
708.139	501
708.545	497.2
708.973	506.2
709.38	505.4
709.786	501.8
710.193	518.2
710.6	502.6
711.028	503
711.435	504.4
711.842	506
712.249	501
712.656	503.2
713.064	513.2
713.492	501.8
713.9	509
714.307	504
714.715	505.8
715.123	507.2
715.53	503.8
715.938	506.8
716.367	510.2
716.775	503
717.184	497
717.592	504
718	515.2
718.408	534
718.816	543.8
719.225	511.4
719.633	503.6
720.042	498.2
720.472	504
720.881	523.8
721.29	518
721.699	502.2
722.108	504.8
722.517	507.4
722.926	502
723.335	515.8
723.744	499.4
724.154	501.2
724.563	505.4
724.973	508.6
725.382	503
725.792	502.4
726.202	500.8
726.612	518.2
727.022	508
727.432	504.2
779.813	498.6
780.223	536.4
780.634	504.8
781.044	502.2
781.454	511
781.865	514.4
782.276	496.4
782.686	514.2
783.097	502
783.508	508.4
783.919	502.8
784.33	517.2
784.741	519.2
785.152	496.8
785.563	500.8
785.974	505.6
786.386	515.4
786.776	505.2
787.188	504.4
787.599	501.6
788.011	508.2
788.423	511.6
788.835	502
789.247	495.2
789.659	501.8
790.071	502.2
790.483	534.4
790.874	499
791.286	510.8
791.699	498.6
792.111	499
792.524	510
792.937	494.6
793.349	501.2
793.741	493
794.154	503.6
794.567	521
794.98	501.4
795.393	496
795.785	511.4
796.198	499.4
796.612	502.4
797.026	500.4
797.439	483.8
797.831	496
798.245	497
798.659	498.2
799.073	495.8
799.487	499.6
799.88	504.8
800.294	500.4
800.708	504.2
801.123	503
801.516	515
801.93	488.6
802.345	487.6
802.76	494
803.153	509.4
803.568	513.2
803.983	506.8
804.377	501.8
804.792	489.4
805.207	486.2
805.601	494.2
806.016	522.2
806.432	497.4
806.826	521.6
807.242	510
807.658	503.6
808.052	497.8
808.468	495.4
808.884	493.8
809.279	509.8
809.695	506.4
810.111	522.8
810.506	507.6
810.922	518.2
811.339	504.2
811.734	508.8
812.151	497.8
812.546	506.6
812.963	501
813.38	505.2
813.776	505.4
814.193	515.8
814.589	501
815.006	502.2
815.402	499
815.82	496.6
816.237	503
816.633	498.8
817.051	493.6
817.448	501.6
817.866	499.4
818.262	522.6
818.68	506.6
819.077	499
819.495	504
819.892	542.4
820.311	496.8
820.708	503.8
821.127	500.8
821.524	506.8
821.943	511.4
822.34	512.4
822.759	507.2
823.157	511
823.576	511
823.974	497.2
824.393	561.8
824.791	502
825.189	492.2
825.609	505.6
826.007	499
826.427	493
826.826	498
827.246	506.8
827.644	492.2
828.043	512.2
828.463	508
828.862	511.2
829.261	503.4
829.682	490.4
830.081	511.8
830.502	497.2
830.901	510.6
831.301	498.2
831.722	493.4
832.121	503.8
832.521	496.6
832.943	504.8
833.342	497.8
833.742	500.8
834.164	496
834.564	493.2
834.965	499.6
835.386	495.6
835.787	499.6
836.188	501.2
836.588	503
837.01	500.2
837.411	496.2
837.812	507.6
838.213	503.8
838.636	496
839.037	552.2
839.438	506.2
839.84	500.4
840.263	510.8
840.664	505
841.066	510.8
841.468	509.2
841.891	497.8
842.293	510.4
842.695	506.2
843.098	507.8
843.5	496.6
843.902	510.2
844.326	497.4
844.729	500
845.131	509.2
845.534	499.8
845.937	513.4
846.34	513.8
846.764	494.6
847.167	504
847.571	498.8
847.974	499
848.377	494.8
848.781	538.6
849.184	509.4
849.588	488.4
849.992	495.6
850.396	502.6
850.821	509.6
851.225	507.4
851.63	497.8
852.034	503.8
852.438	498.8
852.843	526
853.247	494.6
853.652	490.6
854.057	522.2
854.462	508.4
854.867	501.8
855.272	515.4
855.677	500
856.082	488.4
856.487	495.8
856.893	511.6
857.298	501.8
857.704	491.2
858.11	500.8
858.516	492.2
858.922	495
859.328	499.6
859.734	495.8
860.14	499.8
860.525	503.2
860.931	488.8
861.338	496.8
861.745	504.4
862.151	509
862.558	504.8
862.965	502.6
863.372	499.2
863.779	498.2
864.186	515.4
864.572	497.6
864.98	520.4
865.387	529
865.795	497.2
866.203	511.8
866.61	500.2
867.018	522.8
867.405	501.2
867.813	502.2
868.221	494.8
868.63	493.8
869.038	504.4
869.425	523.8
869.834	498.8
870.243	498
870.652	494.4
871.039	499.2
871.448	500.8
871.857	502.8
872.266	496.4
872.654	498.6
873.064	502.8
873.473	508.2
873.883	504.4
874.271	493.6
874.681	508.6
875.091	500.8
875.48	502.6
875.89	513.8
876.3	501.2
876.689	492.6
877.1	498.6
877.51	497.4
877.9	513.4
878.31	500.8
878.721	528.8
879.111	503.8
879.522	499.2
879.933	494.8
880.323	494.6
880.734	500.2
881.125	494.8
881.536	495.8
881.948	493
882.338	503.8
882.75	507
883.141	499
883.553	500.6
883.944	521.4
884.356	515.8
884.769	496.2
885.16	497.6
885.573	500.6
885.964	500.2
886.377	499.2
886.768	491.2
887.181	502.2
887.573	491.4
887.987	503.2
888.378	509
888.792	516.6
889.184	545.6
889.598	495.2
889.99	503
890.383	493.2
890.797	496.4
891.19	502.8
891.604	496.6
891.997	486
892.411	484.8
892.805	491.4
893.198	488.8
893.613	492
894.006	505.2
894.421	487.4
894.815	500.4
895.209	491.8
895.624	529.2
896.018	510.8
896.412	487.2
896.828	490.6
897.222	492
897.617	491.8
898.033	507.6
898.427	490.8
898.822	484.4
899.239	491.2
899.634	488.6
900.029	504.4
900.424	485.6
900.841	487.6
901.236	495.6
901.632	494.2
902.027	536.2
902.445	499.6
902.841	495.6
903.237	491.2
903.633	501
904.05	505.6
904.447	504.2
904.843	506
905.24	501.2
905.636	491.4
906.033	495.8
906.451	506.8
906.848	488.8
907.246	495.2
907.643	509.2
908.04	504.8
908.438	502.4
908.835	504.4
909.254	491.4
909.652	494.4
910.05	492.2
910.448	494
910.846	505.4
911.244	492.6
911.643	501.6
912.041	503.2
912.44	509.8
912.839	496.8
913.237	494.2
913.636	486.4
914.035	497.2
914.434	493.2
914.834	501.8
915.233	503.8
915.633	492.8
916.032	488.2
916.432	496
916.832	508.6
917.232	497.6
917.632	495.2
918.032	504.4
918.432	498.6
918.833	493.6
919.233	499.6
919.634	490.4
920.035	505.2
920.436	489
920.837	501.4
921.238	498.4
921.639	498.8
922.019	491.2
922.42	501.6
922.822	494.8
923.224	494.6
923.625	497.2
924.027	499
924.429	513.8
924.81	501.8
925.212	502.2
925.615	503.2
926.017	493.8
926.42	510.8
926.801	503.8
927.204	506.4
927.607	505.4
928.01	511.6
928.413	499.2
928.795	494.4
929.199	494.8
929.602	495.2
930.006	492
930.388	493.6
930.792	496.2
931.196	491.4
931.579	519.6
931.983	494.2
932.388	535.4
932.771	499.2
933.176	485
933.58	494.6
933.964	497.4
934.369	484.6
934.774	503.2
935.158	501.2
935.563	497.2
935.947	496.2
936.353	499
936.759	489.4
937.143	494.4
937.549	496.2
937.934	504
938.34	504
938.746	483.2
939.131	487.6
939.538	491.4
939.923	503.8
940.33	493
940.716	496.6
941.123	492
941.508	500.4
941.916	500.6
942.302	503.6
942.709	487.6
943.096	492.4
943.503	491.4
943.89	492.6
944.298	497.4
944.685	516.6
945.072	496.8
945.48	507.6
945.867	491.2
946.276	492.8
946.663	512.8
947.051	509
947.46	504.6
947.848	496.8
948.257	494
948.645	498.2
949.033	491.4
949.443	488.4
949.831	528.2
950.22	489
950.63	498.2
951.018	513.8
951.407	491.4
951.796	483
952.207	499
952.596	495.4
952.985	493.8
953.375	525
953.786	500.4
954.176	492.4
954.566	507
954.956	490
955.367	484
955.758	512.4
956.148	486.8
956.539	501.8
956.929	488.4
957.341	485
957.732	498.8
958.123	498.6
958.515	486.6
958.906	499.8
959.297	491.8
959.689	489.4
960.102	490
960.494	496.4
960.886	491.8
961.278	499.8
961.67	515.2
962.062	535
962.455	505
962.847	487.8
963.24	490.8
963.633	496.8
964.026	488
964.419	498.6
964.812	502
965.206	494.2
965.599	500.2
965.993	496.8
966.386	492.8
966.78	510.4
967.174	500.2
967.569	490
967.963	480
968.357	491.8
968.752	499.8
969.146	492.6
969.541	494.4
969.936	492
970.331	496
970.705	494
971.1	499.2
971.496	502.4
971.892	493
972.287	494.4
972.683	491.4
973.079	491.8
973.454	503.4
973.85	497
974.247	501.6
974.643	516
975.04	498
975.415	501.2
975.812	483.6
976.209	495.6
976.607	493.4
976.982	501.4
977.38	508.6
977.778	492.8
978.175	492
978.552	493.4
978.95	492
979.348	494
979.725	535.2
980.123	490.2
980.522	496.2
980.899	496
981.298	491.4
981.697	490.2
982.075	489.8
982.474	480.8
982.852	492.8
983.251	497.6
983.651	486
984.029	486
984.429	494.6
984.808	481.8
985.208	498.8
985.609	480
985.987	477.4
986.388	494
986.768	492.4
987.168	483.8
987.548	494.2
987.949	504
988.329	490.2
988.731	476.8
989.111	488.6
989.491	483.4
989.893	487.8
990.273	491.6
990.676	481.6
991.057	476.6
991.459	486.2
991.84	483.8
992.221	477.8
992.624	507.6
993.006	486
993.388	496.6
993.791	494.8
994.173	496.8
994.576	518
994.959	481.6
995.341	485.8
995.724	487
996.128	489
996.511	490
996.894	484.6
997.298	497.2
997.681	503.4
998.065	494.4
998.448	497.4
998.854	501.6
999.237	491.4
999.621	497.4
1000.01	508.6
1000.39	499
1000.8	482
1001.18	501.4
1001.56	502
1001.95	497.4
1002.33	503.4
1002.72	497.4
1003.13	495.2
1003.51	488.8
1003.9	489.8
1004.28	508.4
1004.67	485.2
1005.06	492.6
1005.44	522
1005.83	486.8
1006.21	493.4
1006.6	493.2
1006.99	501.4
1007.37	494
1007.76	495.4
1060.12	491.6
1060.51	491.2
1060.89	496.4
1061.28	499.6
1061.67	494.6
1062.06	502
1062.45	498.4
1062.83	489.2
1063.22	492.6
1063.61	526.4
1064	500.6
1064.39	494
1064.78	491.2
1065.14	499.4
1065.53	497.6
1065.92	490.6
1066.31	487.8
1066.7	494.8
1067.09	499
1067.46	497.2
1067.85	488
1068.24	493.2
1068.63	505.2
1069.02	495.4
1069.39	503
1069.78	492
1070.17	492.8
1070.57	486.6
1070.93	492.8
1071.33	491.6
1071.72	500.4
1072.11	492.2
1072.48	486.6
1072.87	490.8
1073.26	500.6
1073.64	492
1074.03	482.4
1074.4	491.6
1074.79	495.4
1075.19	495
1075.56	497.2
1075.95	495.8
1076.34	497.2
1076.72	489.6
1077.11	485.6
1077.48	506.6
1077.88	488.4
1078.25	499.6
1078.64	505.8
1079.02	504.2
1079.41	496.6
1079.78	491.2
1080.18	488.2
1080.55	533
1080.95	488.2
1081.32	488.2
1081.72	491.8
1082.09	489
1082.49	489
1082.86	494.6
1083.24	482.2
1083.63	482.6
1084.01	488.6
1084.38	496.4
1084.78	480
1085.16	499.6
1085.55	507.2
1085.93	502.6
1086.31	481.8
1086.7	510.8
1087.08	498.8
1087.46	493.2
1087.83	488.4
1088.23	500
1088.61	491
1088.99	496.4
1089.36	493
1089.76	493.6
1090.14	493.4
1090.52	487.4
1090.9	487
1091.27	508.6
1091.67	509.6
1092.05	501.4
1092.43	478.8
1092.81	494
1093.19	493.8
1093.57	490.6
1093.95	485
1094.35	495.8
1094.73	501.4
1095.11	484.6
1095.49	483.4
1095.87	487
1096.25	502.4
1096.63	503
1097.01	485.4
1097.39	493.4
1097.77	490.4
1098.15	490.2
1098.53	492.2
1098.91	491.2
1099.29	487
1099.68	510
1100.06	496.2
1100.44	495.8
1100.82	487.6
1101.18	495.2
1101.56	491.2
1101.95	483.8
1102.33	491.4
1102.71	501.6
1103.1	474.4
1103.48	484
1103.86	478.8
1104.22	495.4
1104.61	485.4
1104.99	488.4
1105.38	487
1105.76	491.8
1106.12	490.2
1106.51	517.8
1106.89	494.4
1107.26	492.6
1107.64	498.2
1108.03	491.2
1108.41	493.6
1108.78	496.8
1109.16	487.8
1109.55	498.4
1109.91	487.8
1110.3	479.2
1110.69	497.6
1111.05	484.4
1111.44	488.8
1111.8	500.4
1112.19	496.4
1112.58	500.6
1112.94	491.2
1113.33	482.8
1113.7	484.4
1114.09	488.8
1114.45	493.2
1114.84	493.2
1115.21	488.4
1115.6	488.8
1115.96	497.6
1116.35	495.4
1116.72	495
1117.11	500.6
1117.48	488.8
1117.85	494.8
1118.24	504.2
1118.6	489.4
1118.99	486.6
1119.36	489
1119.73	489.6
1120.12	489.8
1120.49	478.2
1120.86	493.4
1121.25	489.4
1121.62	478.4
1121.99	488.4
1122.38	500.6
1122.76	494.6
1123.13	491.8
1123.5	487.8
1123.89	500
1124.26	481.6
1124.63	487.4
1125	494.8
1125.4	473.8
1125.77	488.2
1126.14	478.6
1126.51	489.2
1126.88	491.2
1127.26	487
1127.63	482.6
1128.02	483.8
1128.4	479
1128.77	486.8
1129.14	485.6
1129.52	487.6
1129.89	492.8
1130.26	487.4
1130.64	481.4
1131.01	482.8
