#lambda/nm	C1
208.295	470.4
208.67	431.4
209.045	397.8
209.419	402.4
209.794	543.8
210.169	522
210.544	633.6
210.919	540.8
211.295	533.6
211.67	541.8
212.045	532.8
212.421	532.8
212.796	567.4
213.172	530.8
213.547	536
213.923	532.8
214.299	528.6
214.675	542.2
215.051	530.8
215.427	544.8
215.803	556.4
216.179	535.6
216.555	523.4
216.932	543.8
217.308	537
217.684	530.6
218.061	538.6
218.438	536
218.814	525
219.191	542.4
219.568	530.6
219.945	535.2
220.322	546.8
220.699	532.2
221.076	542
221.453	535.8
221.83	523.6
222.208	524.8
222.585	528.2
222.962	537
223.34	538.2
223.717	530.6
224.095	533.2
224.473	535
224.851	538.8
225.229	524.8
225.607	542.8
225.985	527.6
226.363	539.8
226.741	541.4
227.119	535
227.497	550.2
227.876	525.4
228.254	540.6
228.633	537
229.011	540
229.39	545.4
229.769	535.4
230.148	540.6
230.527	553
230.905	539
231.284	543.2
231.664	531
232.043	547.8
232.422	541.6
232.801	531.4
233.181	537.8
233.56	539.8
233.94	539
234.319	533.4
234.699	531
235.079	568.4
235.458	562.8
235.838	552
236.218	530.8
236.598	529.2
236.978	534.6
237.358	539.2
237.738	533
238.119	537.8
238.499	526.2
238.88	538.8
239.26	549.8
239.641	531.2
240.021	538.8
240.402	529.8
240.783	529
241.163	533.4
241.544	543
241.925	533
242.306	548
242.687	525.4
243.069	537.4
243.45	548.2
243.831	535.6
244.212	533
244.594	568.4
244.975	545
245.357	536.2
245.739	527.6
246.12	538
246.502	546.4
246.884	530.8
247.266	531
247.648	545.2
248.03	552
248.412	539.2
248.794	542.2
249.176	533
249.559	544
249.941	530.6
250.323	528.2
250.706	533.2
251.089	538.8
251.471	540.6
251.854	543
252.237	534
252.62	545.6
253.002	542.6
253.385	537.2
253.769	551.6
254.152	542.2
254.535	542.6
254.918	526.6
255.301	539
255.685	533.8
256.068	533.2
256.452	556.6
256.835	544.2
257.219	547.6
257.603	546.8
257.986	530
258.37	536.4
258.754	533
259.138	540.4
259.522	547.8
259.906	536.8
260.29	533.6
260.675	531.6
261.059	535.4
261.443	529.8
261.828	540.2
262.212	540
262.597	520.4
262.981	530
263.366	544.2
263.751	536.2
264.136	527
264.521	540.6
264.906	535
265.291	542.6
265.676	534.4
266.061	548.6
266.446	550
266.831	537.6
267.217	548.4
267.602	533
267.987	535.2
268.373	534
268.759	542.8
269.144	541.2
269.53	543.2
269.916	541.6
270.302	533.8
270.688	539.6
271.074	535.8
271.46	547.2
271.846	560
272.232	543.2
272.618	531
273.004	534.6
273.391	539
273.777	539.6
274.164	545.4
274.55	545.4
274.937	532.6
275.324	537.6
275.71	549.4
276.097	535.4
276.484	531.2
276.871	543.8
277.258	540.8
277.645	524.4
278.032	533.2
278.419	533.4
278.807	542.8
279.194	527.4
279.581	535.8
279.969	537.2
280.356	541
280.744	526.8
281.131	557.4
281.519	540.8
281.907	539.2
282.295	532.2
282.682	541.2
283.07	534.6
283.458	551
283.846	548
284.235	544.2
284.623	539.6
285.011	528.8
285.399	537.4
285.788	535
286.176	524
286.565	542
286.953	529.4
287.342	527.2
287.731	525.8
288.119	524.8
288.508	531.6
288.897	530.8
289.286	523.2
289.675	540.8
290.064	540.6
290.453	535
290.821	528.8
291.21	545.6
291.599	535.2
291.989	532.8
292.378	534.8
292.768	547
293.157	541.8
293.547	542.8
293.936	532.2
294.326	532
294.716	539
295.106	530.4
295.496	540.8
295.886	543.2
296.276	535.8
296.666	540.2
297.056	525.8
297.446	527.2
297.836	542
298.227	534.4
298.617	541
299.008	547.8
299.398	530.6
299.789	532
300.179	536.8
300.57	550
300.961	537.6
301.352	537
301.742	542
302.133	537.2
302.524	537
302.915	541
303.307	530.8
303.698	548.4
304.089	549
304.48	537.6
304.872	543.8
305.263	543.6
305.655	530
306.046	540
306.438	549.6
306.829	530.8
307.221	544.8
307.613	534
308.005	544.4
308.397	556.6
308.789	550.4
309.181	554.6
309.573	546.6
309.965	547.2
310.357	527.2
310.749	548.6
311.142	527.6
311.534	538.2
311.926	540.4
312.319	536.6
312.711	530
313.104	543
313.497	535.8
313.889	569.2
314.282	548.2
314.675	548.8
315.068	538.6
315.461	543
315.854	559.6
316.247	538.2
316.64	534
317.033	533.6
317.405	543.4
317.798	531.8
318.192	537
318.585	521
318.979	540.2
319.372	529.6
319.766	531.4
320.16	542.2
320.553	538.2
320.947	554.2
321.341	529.6
321.735	540.2
322.129	528
322.523	553.6
322.917	530.8
323.311	545.8
323.705	539.8
324.099	541
324.494	547.4
324.888	552.2
325.282	535.8
325.677	549.2
326.071	541.4
326.466	544.4
326.861	540
327.255	548
327.65	550.4
328.045	549.2
328.44	542.6
328.835	535.8
329.23	529.8
329.625	550.2
330.02	530.4
330.415	553.4
330.81	539.6
331.206	535.4
331.601	525.4
331.996	545.2
332.37	552.2
332.766	536.4
333.161	550.8
333.557	535.8
333.953	540.8
334.348	726.2
334.744	541.8
335.14	527.8
335.536	527.6
335.932	545.6
336.328	538.8
336.724	543.6
337.12	532
337.516	543
337.913	539.2
338.309	544
338.705	534
339.102	546.4
339.498	535.6
339.895	551
340.291	528.6
340.688	543
341.085	536.4
341.481	535.8
341.878	535.6
342.275	557.6
342.672	524.6
343.069	531.2
343.466	519.4
343.842	545.8
344.239	524.6
344.636	540
345.033	523.8
345.431	526.8
345.828	530.4
346.225	521
346.623	566.2
347.02	532.4
347.418	539.4
347.816	539
348.213	529
348.611	540.4
349.009	531.8
349.407	546.8
349.805	531.8
350.203	522.8
350.601	551.6
350.999	522.4
351.397	582.8
351.795	538.4
352.193	538
352.57	540.8
352.969	545.4
353.367	524.2
353.766	531.6
354.164	530
354.563	547.2
354.961	531
355.36	532.8
355.759	539
356.158	521.8
356.557	527.6
356.956	526
357.355	520.2
357.754	533
358.153	539.6
358.552	551.6
358.951	530.8
359.35	546.6
359.75	527.8
360.149	521.8
360.527	520.4
360.926	527.6
361.326	536.6
361.726	533.8
362.125	526.8
362.525	538.2
362.925	526.8
363.325	525.8
363.724	528.8
364.124	524
364.524	520.6
364.924	529.6
365.324	533.6
365.725	520.4
366.125	530.2
366.525	529
366.904	525.6
367.304	512.4
367.705	541.8
368.105	541
368.506	534
368.906	530
369.307	526.4
369.708	528.8
370.108	515
370.509	537.2
370.91	523.6
371.311	533.2
371.712	533.8
372.113	530.4
372.514	521
372.894	525
373.295	532.8
373.696	531.8
374.097	538.2
374.499	557
374.9	528
375.301	515.2
375.703	534.8
376.105	528.8
376.506	533
376.908	529.2
377.309	531.2
377.711	524.4
378.113	521
378.493	535.4
378.895	522.2
379.297	535.2
379.699	523.8
380.102	526
380.504	533
380.906	526.4
381.308	552.8
381.71	527.4
382.113	531.2
382.515	528.8
382.918	530.8
383.299	523.4
383.701	538.4
384.104	525.2
384.507	510.4
384.909	531.8
385.312	522.6
385.715	514.2
386.118	527.6
386.521	528
386.924	538.4
387.327	520.4
387.709	516.6
388.112	515.4
388.515	528
388.918	530.6
389.322	528.2
389.725	518.8
390.129	548
390.532	532.4
390.936	525.2
391.339	524.4
391.743	529.6
392.125	526.6
392.529	536
392.933	543.8
393.337	528.4
393.74	524.8
394.144	528.4
394.548	519
394.953	524.8
395.357	538.8
395.761	528.6
396.144	526.4
396.548	522.2
396.952	533
397.357	525.2
397.761	526.4
398.166	529
398.57	527
398.975	518.2
399.379	527.4
399.763	573.4
400.168	522.4
400.572	529
400.977	528.2
401.382	541.2
401.787	537
402.192	542.2
402.597	533
403.002	514.4
403.386	539.8
403.791	542.8
404.197	524
404.602	532.6
405.007	533.6
405.413	525.2
405.818	529
406.224	525.8
406.608	522.2
407.014	529.2
407.42	542.4
407.825	524.6
408.231	529.6
408.637	536.2
409.043	548
409.449	528.4
409.834	526
410.24	523.4
410.646	539
411.052	538.6
411.458	540.2
411.865	538.4
412.271	531.4
412.677	528.6
413.062	529.8
413.469	525.6
413.875	550.4
414.282	544
414.689	527.8
415.095	529.6
415.502	520.2
415.888	533.6
416.294	514.4
416.701	560
417.108	523.6
417.515	526.2
417.923	521.6
418.33	543.6
418.715	532
419.123	523.6
419.53	524.8
419.937	527
420.345	539
420.752	521.8
421.16	545
421.546	531.8
421.953	544
422.361	523.4
422.769	527
423.177	524.8
423.585	540.6
423.992	550.4
424.379	543.2
424.787	540.6
425.195	547
425.603	527.2
426.011	540.4
426.419	538.4
426.806	528.6
427.214	530.6
427.623	538.8
428.031	548.4
428.44	536
428.848	542.8
429.235	543.8
429.644	534.6
430.053	527.4
430.461	543.4
430.87	546.8
431.279	537.2
431.666	527
432.075	529.2
432.484	530.8
432.893	531.8
433.302	538.8
433.711	560
434.099	537.2
434.508	524
434.918	519.4
435.327	537.4
435.737	532
436.125	534.8
436.534	534.2
436.944	534.4
437.353	535.6
437.763	548
438.173	525.6
438.561	532.4
438.971	516
439.381	526.2
439.791	530
440.201	512.4
440.589	527.8
440.999	533.8
441.409	523.2
441.819	519
442.23	537.4
442.619	535.2
443.029	516.4
443.439	526.8
443.85	536.8
444.26	539.6
444.649	529.6
445.06	531
445.471	526.2
445.881	517.2
446.292	546.2
446.682	551
447.092	514.4
447.503	565.8
447.914	520.2
448.325	522.4
448.715	528
449.126	520
449.537	524
449.948	524.2
450.338	517.2
450.75	531.2
451.161	525.8
451.572	525.8
451.984	521
452.374	515.2
452.786	528
453.197	523.8
453.609	526
453.999	516.4
454.411	519
454.823	535.4
455.235	530.2
455.647	522.6
456.037	531.8
456.449	516.8
456.862	528.8
457.274	525.2
457.665	516.2
458.077	533
458.489	546.8
458.902	522.8
459.293	522.2
459.705	526
460.118	520.2
460.53	533.2
460.921	516
461.334	522.4
461.747	527.2
462.16	536
462.551	526.4
462.964	533.8
463.377	522
463.79	524
464.182	528.8
464.595	514.2
465.008	526.6
465.421	525.6
465.813	525.2
466.226	536
466.64	516.4
467.053	550.4
467.445	529.6
467.859	538.8
468.272	528.8
468.686	526.8
469.078	523
469.492	507.6
469.906	524.8
470.298	531.6
470.712	517.2
471.126	545.8
471.54	507
471.933	520.8
472.347	520.6
472.761	516.8
473.175	512
473.568	510.6
473.982	511.6
474.397	517
474.79	527
475.204	525.6
475.619	518.2
476.033	520.8
476.426	512.4
476.841	509.6
477.256	533.2
477.649	518.2
478.064	520
478.479	522.2
478.872	516.4
479.287	505.2
479.702	510
480.118	519
480.511	516.4
480.927	520.8
481.342	516.8
481.736	517.6
482.151	514.8
482.566	529.2
482.96	523.2
483.376	534.6
483.792	521.8
484.186	521.8
484.602	518.8
485.017	521
485.412	524.8
485.827	529
486.243	521.2
486.638	539.6
487.054	529.2
487.47	525.4
487.865	511
488.281	517
488.697	510.2
489.092	523.4
489.508	507.6
489.925	524.2
490.32	510
490.736	528.8
491.153	517.6
491.548	521.2
491.964	523.4
492.381	504
492.776	519.4
493.193	524.2
493.61	527
494.006	512.4
494.422	522.8
494.84	514.6
495.235	531.6
495.652	515.8
496.069	521.6
496.465	513.4
496.883	518.6
497.3	545.2
497.696	508
498.113	527.2
498.509	510.4
498.927	513.2
499.344	512.4
499.741	512
500.158	515.4
500.576	528
500.973	520.4
501.39	510.2
501.787	516.4
502.205	523.8
502.623	513.8
503.02	510
503.438	508.8
503.856	520.6
504.253	519.4
504.671	523.6
505.068	520
505.486	518.8
505.905	535.2
506.302	518.4
506.72	524.6
507.118	518
507.536	511.4
507.955	514.6
508.352	514.2
508.771	525
509.169	517.8
509.587	512.6
510.006	517.4
510.404	504.6
510.823	505.4
511.221	515.6
511.64	510.2
512.038	525.2
512.457	511.2
512.877	508.4
513.275	512.8
513.694	513.8
514.092	513.8
514.512	515.4
514.91	523.8
515.33	522.4
515.749	511.2
516.148	518.6
516.568	517.4
516.966	514
517.386	516.4
517.785	510.6
518.205	514.4
518.603	513.4
519.024	512.2
519.444	519
519.843	530.6
520.263	526.6
520.662	518.6
521.082	509.2
521.481	517.8
521.902	512.4
522.301	516.4
522.722	516
523.121	517.2
523.542	510
523.963	516
524.362	516.2
524.783	517.4
525.183	515
525.604	522.6
526.003	513.2
526.425	513.6
526.824	517.4
527.246	525.8
527.646	522.2
528.067	518.2
528.467	515.2
528.888	525
529.289	520.6
529.71	518
530.11	515.8
530.532	505.4
530.932	511.6
531.354	513.6
531.755	547.4
532.176	530.8
532.577	513.6
532.999	518.6
533.4	517.6
533.822	521.8
534.223	518.6
534.645	517.6
535.046	514.8
535.468	524
535.869	526.2
536.292	507.8
536.693	549
537.115	519
537.516	516.8
537.939	518.8
538.34	530.6
538.742	522.2
539.165	511
539.566	515.8
539.989	511.4
540.391	520.8
540.814	507.4
541.216	517.4
541.639	515
542.041	522
542.464	516.4
542.866	507
543.268	509.6
543.691	519
544.093	515.6
544.517	531
544.919	505.2
545.343	528.6
545.745	514.4
546.147	520.4
546.571	508
546.974	507.4
547.398	510.8
547.8	523.8
548.224	508.8
548.627	508.4
549.03	516.6
549.454	513
549.857	509.2
550.281	511.6
550.684	507.2
551.087	531.6
551.512	519
551.915	518.4
552.34	514.8
552.743	515.4
553.146	512.8
553.571	513
553.975	531
554.399	510.2
554.803	553.4
555.207	511.4
555.632	512
556.036	521.6
556.461	514.6
556.865	513.2
557.268	518
557.694	509.2
558.098	515
558.502	517.8
558.927	506.2
559.332	510.6
559.736	504.2
560.162	521.6
560.566	510.2
560.992	513.8
561.396	516.4
561.801	509.2
562.227	511
562.631	509.8
563.036	516.8
563.462	521.6
563.867	520.8
564.272	507.6
564.698	513.8
565.103	505.6
565.508	526
565.935	510.4
566.34	514.2
566.745	516.2
567.172	507.8
567.577	523.4
567.982	520.4
568.409	516.2
568.815	503.6
569.22	514.2
569.626	522.6
570.053	510.6
570.459	515.8
570.865	516.8
571.292	513.8
571.698	521.6
572.104	499.8
572.531	511.2
572.937	518.4
573.343	511.4
573.75	507.2
574.177	510.6
574.583	516
574.99	512
575.396	516.6
575.824	510.6
576.231	510.8
576.637	507.2
577.065	524.2
577.472	504.8
577.879	509
578.286	516.8
578.714	503
579.121	509.2
579.528	507
579.935	516.2
580.364	509.6
580.771	495
581.178	505.4
581.585	519.4
582.014	520.6
582.421	508.4
582.829	512.8
583.236	528
583.644	505.2
584.073	513.4
584.481	511.2
584.889	506.6
585.296	524
585.726	508.6
586.134	511
586.542	510.2
586.95	527.2
587.358	504
587.787	509
588.196	502.4
588.604	512.8
589.012	514.6
589.421	511.6
589.851	498
590.259	512.2
590.668	516.6
591.076	538.8
591.485	510.6
591.894	514.6
592.324	529.2
592.733	523.6
593.142	498.2
593.551	514.4
593.96	537.4
594.369	498.2
594.8	505.4
595.209	507.4
595.618	499
596.028	510.6
596.437	501.2
596.847	514.6
597.256	514.2
597.687	512.6
598.097	510
598.507	502.6
598.917	514.6
599.327	522
599.736	510.8
600.146	526.8
600.556	512.6
600.988	525.6
601.398	507.4
601.808	519
602.219	502.6
602.629	517.8
603.039	520.8
603.45	533.2
603.86	512.2
604.271	518
604.703	515.2
605.114	513.4
605.525	509.2
605.935	511.4
606.346	525.8
606.757	515.4
607.168	513
607.579	504.4
607.99	515.4
608.402	515.2
608.813	521.8
609.224	505.4
609.636	506
610.047	504.4
610.48	511.2
610.892	517.2
611.303	522.2
611.715	512.6
612.127	506.2
612.539	504.6
612.95	516.2
613.362	503
613.774	501.4
614.186	511
614.599	505
615.011	520.4
615.423	511.2
615.835	512
616.248	503.8
616.66	516.2
617.073	500.6
617.485	510.4
617.898	515
618.311	507.4
618.723	509.6
619.136	539.4
619.549	524.6
619.962	521.8
620.375	512.6
620.788	507
621.201	507.6
621.614	514.6
622.028	508.6
622.441	513
622.854	516.2
623.268	506.8
623.681	515.6
624.095	508
624.509	524.4
624.922	516.2
625.336	499.8
625.728	514.4
626.142	528.4
626.556	523.8
626.97	518.2
627.384	511.6
627.799	514.8
628.213	518
628.627	504.2
629.041	505.2
629.456	516.4
629.87	511.4
630.285	514.4
630.699	524.8
631.093	507
631.507	509.4
631.922	506.8
632.337	521.4
632.752	498.8
633.167	512.8
633.582	505.8
633.997	500.8
634.412	504.8
634.806	512
635.221	496.4
635.637	512.4
636.052	496.8
636.468	509.4
636.883	531.6
637.299	508
637.715	506.2
638.109	503.8
638.525	499.8
638.941	516.4
639.357	510.4
639.773	516.4
640.189	502.2
640.584	509.2
641	511.6
641.416	503.8
641.832	511.4
642.249	509.2
642.665	521.2
643.06	514
643.477	516.2
643.894	496.8
644.31	515.8
644.727	508
645.123	510.8
645.54	502.8
645.957	505
646.374	511.8
646.77	508
647.187	536.8
647.604	511
648.021	494.6
648.439	509.4
648.835	511
649.252	516
649.67	503.6
650.088	510.8
650.484	515.6
650.902	510.2
651.32	510.8
651.738	509
652.134	512.2
652.552	525.6
652.971	514
653.389	511
653.786	517.2
654.204	513.6
654.622	497.6
655.019	508.2
655.438	508.8
655.857	511.8
656.275	515.2
656.673	506.2
657.091	514
657.51	505.4
657.908	515.4
658.327	524.2
658.746	500
659.144	515.8
659.563	517.8
659.982	518
660.38	500
660.8	500.6
661.219	522.8
661.617	512.8
662.037	508.6
662.457	511.8
662.855	496
663.275	524.6
663.695	502.6
664.094	499.4
664.514	505.4
664.934	500.6
665.333	513.8
665.753	502.6
666.152	503
666.572	504.2
666.993	515.4
667.392	500
667.812	510.4
668.212	503.2
668.632	515
669.053	501.4
669.453	505
669.874	513.4
670.273	507.2
670.694	503.2
671.116	516.4
671.515	517.2
671.937	499.6
672.337	503.4
672.758	509.4
673.158	509.8
673.58	496
673.98	506
674.402	510.6
674.824	508
675.224	498.6
675.646	498
676.047	503.2
676.469	508.8
676.869	503.8
677.292	512.8
677.693	498.2
678.115	500.2
678.516	509.2
678.939	508.6
679.34	503.8
679.762	515.4
680.164	509.8
680.586	500
680.988	509.4
681.411	531.6
681.812	504
682.236	494.2
682.637	499.4
683.061	500.8
683.462	508
683.864	509.4
684.288	506.2
684.69	497.6
685.114	508.4
685.516	511.8
685.94	500.2
686.342	505.4
686.766	507
687.168	505
687.571	514.8
687.995	499.6
688.398	492.2
688.822	499.8
689.225	514
689.628	520.4
690.052	504.6
690.456	517.4
690.88	509.6
691.284	497.8
691.687	503.6
692.112	499
692.515	505.6
692.919	501.2
693.344	511.8
693.747	500
694.173	501.6
694.577	519.8
694.98	510.6
695.406	503.4
695.81	505.8
696.214	513.8
696.64	505
697.044	514.2
697.448	517
697.874	509
698.279	501.4
698.684	494
699.11	506.2
699.514	504.6
699.919	505
700.324	507.2
700.75	511.6
701.156	508
701.561	511.2
701.987	511.8
702.393	511.4
702.798	510.4
703.203	502.8
703.63	505.8
704.036	502
704.442	501.8
704.847	496.2
705.274	501.2
705.68	503
706.086	509.8
706.492	495.4
706.92	505
707.326	508.2
707.732	501
708.139	500.2
708.545	496.2
708.973	505.6
709.38	496.2
709.786	497
710.193	517
710.6	497.6
711.028	493.8
711.435	498.6
711.842	500.4
712.249	498.2
712.656	503.6
713.064	513.4
713.492	493
713.9	495.2
714.307	502.6
714.715	504.8
715.123	511.4
715.53	505.6
715.938	511
716.367	505.4
716.775	503
717.184	497.4
717.592	504.6
718	518.4
718.408	524.8
718.816	538.4
719.225	500
719.633	501
720.042	498.4
720.472	502.2
720.881	519.8
721.29	515.2
721.699	503
722.108	507.2
722.517	499.4
722.926	501.2
723.335	512
723.744	505.4
724.154	506.4
724.563	499.6
724.973	499.2
725.382	507.4
725.792	498
726.202	496.8
726.612	512
727.022	506.8
727.432	498
779.813	496.2
780.223	540
780.634	500
781.044	491.8
781.454	503.4
781.865	511.6
782.276	495.6
782.686	509.6
783.097	493.2
783.508	502
783.919	511.4
784.33	513
784.741	514.6
785.152	500
785.563	490.4
785.974	495.2
786.386	511
786.776	497.2
787.188	500
787.599	499.6
788.011	504.2
788.423	506.4
788.835	492.8
789.247	493.6
789.659	505.8
790.071	501.8
790.483	538.4
790.874	504.6
791.286	508
791.699	506.4
792.111	500.6
792.524	506.8
792.937	500.6
793.349	492.6
793.741	495.4
794.154	504
794.567	517.4
794.98	502.2
795.393	488.4
795.785	516.2
796.198	495.8
796.612	500.2
797.026	495.4
797.439	491.8
797.831	496.2
798.245	500
798.659	503.2
799.073	497.2
799.487	496.6
799.88	502
800.294	498.8
800.708	510.6
801.123	500.6
801.516	519.4
801.93	493.8
802.345	499.8
802.76	505.6
803.153	515.6
803.568	519.6
803.983	511.8
804.377	506.6
804.792	489
805.207	488
805.601	502.4
806.016	527.8
806.432	496
806.826	516.4
807.242	506.6
807.658	502
808.052	499
808.468	499.2
808.884	494.4
809.279	500.2
809.695	511.8
810.111	523.6
810.506	503
810.922	517.4
811.339	497.2
811.734	505.4
812.151	499.4
812.546	504
812.963	498.6
813.38	502
813.776	494.6
814.193	520
814.589	498.6
815.006	495
815.402	492.2
815.82	493.2
816.237	497.4
816.633	502.6
817.051	490
817.448	501.4
817.866	490
818.262	518.8
818.68	504.4
819.077	496.8
819.495	503.4
819.892	529.2
820.311	489.2
820.708	497.4
821.127	494.4
821.524	504.6
821.943	499
822.34	509.4
822.759	500.2
823.157	499.4
823.576	510.2
823.974	509.2
824.393	584
824.791	499.4
825.189	496
825.609	501.2
826.007	502.4
826.427	490.2
826.826	496
827.246	496.8
827.644	477.2
828.043	512.2
828.463	498.6
828.862	507.4
829.261	503.2
829.682	491.4
830.081	509.2
830.502	503.4
830.901	503
831.301	498
831.722	500.2
832.121	508.8
832.521	492
832.943	498.4
833.342	496.8
833.742	493.2
834.164	497.6
834.564	502.8
834.965	506.4
835.386	497.8
835.787	497.6
836.188	498.6
836.588	499
837.01	503.2
837.411	498.4
837.812	502.8
838.213	498.4
838.636	501
839.037	554
839.438	501
839.84	509.8
840.263	509.4
840.664	502.6
841.066	504.6
841.468	504.6
841.891	498.6
842.293	512
842.695	510.2
843.098	500.8
843.5	502.2
843.902	504.2
844.326	499.2
844.729	504.4
845.131	513.6
845.534	500.2
845.937	507.8
846.34	515.4
846.764	491.4
847.167	505.4
847.571	496.6
847.974	501.4
848.377	494.4
848.781	539.6
849.184	510.4
849.588	493
849.992	492.8
850.396	496.4
850.821	513
851.225	501.6
851.63	493.6
852.034	510.4
852.438	501.2
852.843	528.2
853.247	492.8
853.652	492.2
854.057	514
854.462	496.8
854.867	502.8
855.272	518.2
855.677	503.8
856.082	502.8
856.487	490.6
856.893	502
857.298	492.2
857.704	487
858.11	498.4
858.516	504
858.922	496.2
859.328	504.6
859.734	497.8
860.14	497.2
860.525	502.6
860.931	494.8
861.338	496
861.745	499.4
862.151	501.6
862.558	501.4
862.965	497.8
863.372	496.4
863.779	493.8
864.186	510.8
864.572	495.8
864.98	513.4
865.387	530.8
865.795	486.8
866.203	503.2
866.61	492
867.018	507.2
867.405	508.6
867.813	501.6
868.221	503.8
868.63	501.6
869.038	509.6
869.425	536.2
869.834	508
870.243	498.4
870.652	488.2
871.039	499.6
871.448	489.8
871.857	500.6
872.266	502.4
872.654	504
873.064	494.6
873.473	504.6
873.883	494.8
874.271	490
874.681	507.2
875.091	490.6
875.48	508.4
875.89	512.4
876.3	495.4
876.689	485
877.1	498.8
877.51	500.8
877.9	516.6
878.31	495
878.721	528
879.111	500.6
879.522	499
879.933	485
880.323	490.2
880.734	489.2
881.125	496.2
881.536	501.4
881.948	495.2
882.338	500.6
882.75	501.6
883.141	491.6
883.553	498
883.944	515.2
884.356	502
884.769	497.6
885.16	501.4
885.573	507.8
885.964	491
886.377	502.6
886.768	490.4
887.181	500
887.573	495
887.987	497.6
888.378	505.8
888.792	497.4
889.184	532.6
889.598	489.6
889.99	501.8
890.383	495.2
890.797	495.2
891.19	513.2
891.604	501.8
891.997	493
892.411	489.8
892.805	494.4
893.198	490
893.613	486.8
894.006	497
894.421	496.6
894.815	497.4
895.209	493.4
895.624	532.2
896.018	510.2
896.412	491.6
896.828	497
897.222	500.2
897.617	498.4
898.033	511
898.427	497.8
898.822	499.2
899.239	486.2
899.634	501.4
900.029	512.8
900.424	491.8
900.841	482.8
901.236	499.2
901.632	504.6
902.027	540.4
902.445	505
902.841	492.2
903.237	491.8
903.633	507
904.05	501.6
904.447	495
904.843	509.2
905.24	490.8
905.636	488.6
906.033	493.8
906.451	500.8
906.848	484.4
907.246	495.2
907.643	508.8
908.04	497.4
908.438	510.2
908.835	498.4
909.254	495.8
909.652	494.2
910.05	500.4
910.448	491
910.846	496.4
911.244	491
911.643	501.6
912.041	492.6
912.44	512.6
912.839	483
913.237	490.4
913.636	491.2
914.035	502.2
914.434	487.6
914.834	499.4
915.233	502.6
915.633	489.4
916.032	492.2
916.432	489.4
916.832	503.8
917.232	494.2
917.632	487.8
918.032	498
918.432	491
918.833	491.6
919.233	497.4
919.634	487.2
920.035	499.4
920.436	491.6
920.837	497.4
921.238	486.2
921.639	494.4
922.019	498.2
922.42	495.2
922.822	495.4
923.224	496
923.625	489.6
924.027	491.4
924.429	519
924.81	490.4
925.212	504.4
925.615	502.4
926.017	493.4
926.42	504.2
926.801	494.6
927.204	497.8
927.607	504.4
928.01	513
928.413	497.8
928.795	497.6
929.199	491.6
929.602	494.2
930.006	494.8
930.388	490
930.792	503
931.196	498.2
931.579	524
931.983	496.8
932.388	534.8
932.771	493.8
933.176	486.4
933.58	505.2
933.964	495.2
934.369	491
934.774	509.4
935.158	493.4
935.563	489.6
935.947	492.6
936.353	504.4
936.759	495.6
937.143	492.4
937.549	496.8
937.934	503.4
938.34	511.6
938.746	500.2
939.131	491
939.538	495
939.923	494
940.33	494.4
940.716	496
941.123	496
941.508	500.6
941.916	509.6
942.302	505
942.709	494
943.096	487.6
943.503	493.2
943.89	491.4
944.298	492.6
944.685	509.4
945.072	494
945.48	504.4
945.867	479.6
946.276	479.6
946.663	511
947.051	509
947.46	509.2
947.848	501.2
948.257	498.2
948.645	489.6
949.033	497.8
949.443	487.4
949.831	531
950.22	489
950.63	502.6
951.018	517.4
951.407	496.6
951.796	488.4
952.207	493.2
952.596	502
952.985	489.4
953.375	523.6
953.786	488.2
954.176	486.4
954.566	503.4
954.956	482.4
955.367	494.2
955.758	510.2
956.148	490.6
956.539	501.6
956.929	485.4
957.341	488.8
957.732	487.6
958.123	504.4
958.515	495.2
958.906	493.6
959.297	501
959.689	483.4
960.102	495.2
960.494	494.6
960.886	492.6
961.278	485.8
961.67	516.4
962.062	518.6
962.455	491.6
962.847	496.8
963.24	490.8
963.633	496.8
964.026	483
964.419	495.8
964.812	504.8
965.206	495.4
965.599	498.6
965.993	501
966.386	491.2
966.78	500.8
967.174	502
967.569	496.2
967.963	488.6
968.357	489.4
968.752	487.8
969.146	499.2
969.541	484.2
969.936	496.6
970.331	492.8
970.705	493
971.1	491
971.496	498.8
971.892	478.8
972.287	482.4
972.683	492.6
973.079	492.4
973.454	514
973.85	489.2
974.247	490.4
974.643	515.6
975.04	491.4
975.415	497
975.812	483.6
976.209	495.4
976.607	487.4
976.982	505.8
977.38	503.4
977.778	494.2
978.175	501.4
978.552	495.8
978.95	490
979.348	491.2
979.725	531.2
980.123	494.2
980.522	494.2
980.899	493
981.298	499.4
981.697	487.2
982.075	495.2
982.474	490.4
982.852	488.2
983.251	494.6
983.651	487.2
984.029	496.4
984.429	496.6
984.808	485.2
985.208	488.8
985.609	487.4
985.987	482
986.388	486.4
986.768	500.4
987.168	489
987.548	497.2
987.949	500.2
988.329	491
988.731	482.6
989.111	490.6
989.491	491.4
989.893	492.2
990.273	502.6
990.676	489.6
991.057	490.4
991.459	497.6
991.84	491.8
992.221	485.4
992.624	506.4
993.006	503.2
993.388	499.2
993.791	496.2
994.173	496.4
994.576	522.4
994.959	482
995.341	487.8
995.724	489
996.128	482.2
996.511	489
996.894	493
997.298	490.6
997.681	495.2
998.065	488.6
998.448	490.6
998.854	506.6
999.237	485.2
999.621	506
1000.01	507
1000.39	498.2
1000.8	490.2
1001.18	502.8
1001.56	497
1001.95	503.2
1002.33	492.2
1002.72	490.8
1003.13	487.4
1003.51	493.4
1003.9	497.6
1004.28	508.8
1004.67	489.8
1005.06	490.6
1005.44	520.6
1005.83	483.8
1006.21	494
1006.6	486.6
1006.99	495.8
1007.37	492.8
1007.76	494.2
1060.12	487.2
1060.51	481
1060.89	499.8
1061.28	500.4
1061.67	498.2
1062.06	492.4
1062.45	490
1062.83	487
1063.22	496.8
1063.61	515.2
1064	492.2
1064.39	496.6
1064.78	496.2
1065.14	506.8
1065.53	491.8
1065.92	489
1066.31	492.4
1066.7	496.4
1067.09	497.6
1067.46	506
1067.85	495
1068.24	491.6
1068.63	492.6
1069.02	492
1069.39	499.8
1069.78	494.6
1070.17	496.4
1070.57	482.2
1070.93	492
1071.33	489.2
1071.72	493.8
1072.11	494.2
1072.48	491.6
1072.87	489.2
1073.26	494.2
1073.64	486.8
1074.03	491.2
1074.4	494
1074.79	485.8
1075.19	495.8
1075.56	495.6
1075.95	493.8
1076.34	497.4
1076.72	485.6
1077.11	498.6
1077.48	499
1077.88	489
1078.25	490.6
1078.64	499.4
1079.02	497.2
1079.41	503
1079.78	496.6
1080.18	496.4
1080.55	549
1080.95	486.2
1081.32	490.2
1081.72	492
1082.09	494.8
1082.49	484.4
1082.86	492.2
1083.24	483.4
1083.63	485
1084.01	493.6
1084.38	499.8
1084.78	490.4
1085.16	497.4
1085.55	505.6
1085.93	504.6
1086.31	488.4
1086.7	516.4
1087.08	491
1087.46	483.6
1087.83	487
1088.23	492
1088.61	486
1088.99	496.2
1089.36	489.2
1089.76	484.8
1090.14	493
1090.52	481.6
1090.9	484.8
1091.27	497
1091.67	512.4
1092.05	499.8
1092.43	483.2
1092.81	502
1093.19	501
1093.57	493.8
1093.95	484.6
1094.35	500.6
1094.73	498.6
1095.11	483.4
1095.49	489.8
1095.87	485.8
1096.25	499.4
1096.63	504.4
1097.01	486.8
1097.39	491
1097.77	494.6
1098.15	488.8
1098.53	488.6
1098.91	490.2
1099.29	485.8
1099.68	503.4
1100.06	485.8
1100.44	490.8
1100.82	491
1101.18	501
1101.56	482.4
1101.95	488.8
1102.33	495
1102.71	495.8
1103.1	486.6
1103.48	480.4
1103.86	483.6
1104.22	495
1104.61	485
1104.99	485.2
1105.38	486.4
1105.76	496.4
1106.12	483.2
1106.51	517.8
1106.89	500
1107.26	491
1107.64	501
1108.03	487.8
1108.41	491.6
1108.78	494
1109.16	495.6
1109.55	500.2
1109.91	487.8
1110.3	477.2
1110.69	498.6
1111.05	492.6
1111.44	490
1111.8	498.2
1112.19	487.6
1112.58	495.6
1112.94	483.2
1113.33	484.2
1113.7	477.6
1114.09	487
1114.45	488.2
1114.84	485.6
1115.21	488.8
1115.6	490.2
1115.96	495.4
1116.35	491.2
1116.72	482.8
1117.11	501.4
1117.48	487.8
1117.85	489.2
1118.24	493.8
1118.6	496
1118.99	489.2
1119.36	492.8
1119.73	495
1120.12	486
1120.49	491.8
1120.86	492.8
1121.25	489
1121.62	489.2
1121.99	488
1122.38	500.8
1122.76	493
1123.13	488.6
1123.5	490
1123.89	496
1124.26	479
1124.63	487.2
1125	491.4
1125.4	484.6
1125.77	487.2
1126.14	482
1126.51	485.8
1126.88	488
1127.26	489.6
1127.63	477.2
1128.02	486.8
1128.4	483.2
1128.77	487.2
1129.14	496.6
1129.52	492.6
1129.89	488
1130.26	485.4
1130.64	491
1131.01	484.8
