#lambda/nm	C1
208.295	462.4
208.67	431
209.045	392.2
209.419	398
209.794	537.6
210.169	515.8
210.544	619.4
210.919	528.8
211.295	522.6
211.67	529.8
212.045	522.6
212.421	527.6
212.796	551
213.172	526.8
213.547	530.4
213.923	514.2
214.299	524.4
214.675	532.6
215.051	531.4
215.427	531
215.803	543.6
216.179	524.8
216.555	520.2
216.932	532.4
217.308	528.6
217.684	524.4
218.061	534
218.438	531.8
218.814	521.6
219.191	532.8
219.568	522.2
219.945	528
220.322	526.4
220.699	532.8
221.076	541.4
221.453	533.2
221.83	518.8
222.208	532
222.585	528.6
222.962	527
223.34	532.6
223.717	528.4
224.095	522.2
224.473	535
224.851	520
225.229	519.8
225.607	538.4
225.985	518.6
226.363	529.4
226.741	526
227.119	530
227.497	539.2
227.876	518
228.254	530.2
228.633	529.4
229.011	528.8
229.39	530.2
229.769	534.6
230.148	535
230.527	544.2
230.905	531.2
231.284	536.4
231.664	527.8
232.043	537
232.422	535.6
232.801	522.8
233.181	540
233.56	525.8
233.94	533.2
234.319	522
234.699	521
235.079	560.8
235.458	557.6
235.838	541.6
236.218	530.4
236.598	528.4
236.978	534.2
237.358	515
237.738	527.2
238.119	529.4
238.499	522.4
238.88	528.6
239.26	536.4
239.641	530
240.021	521.6
240.402	524.4
240.783	531.6
241.163	534
241.544	528.2
241.925	519.6
242.306	539.2
242.687	527
243.069	529.4
243.45	532.8
243.831	525.4
244.212	528
244.594	555
244.975	538
245.357	536.8
245.739	522.2
246.12	541
246.502	539
246.884	528.6
247.266	525.4
247.648	536.2
248.03	546
248.412	530.2
248.794	530.6
249.176	519
249.559	545.2
249.941	521
250.323	520
250.706	528.4
251.089	526.4
251.471	528.4
251.854	536.6
252.237	529
252.62	532
253.002	534.8
253.385	523.2
253.769	535.8
254.152	535.6
254.535	534
254.918	522.2
255.301	525.8
255.685	528.2
256.068	527.4
256.452	545.4
256.835	534.2
257.219	531
257.603	533.8
257.986	522
258.37	535.8
258.754	525.6
259.138	533
259.522	539
259.906	530.8
260.29	535.8
260.675	532
261.059	525.6
261.443	517.8
261.828	530.2
262.212	528.6
262.597	518.2
262.981	518.6
263.366	533.4
263.751	530.2
264.136	525.8
264.521	521.2
264.906	518.4
265.291	542.4
265.676	528.2
266.061	533
266.446	543.2
266.831	535.8
267.217	540.2
267.602	532.6
267.987	533.6
268.373	532.2
268.759	540.6
269.144	526.2
269.53	535.8
269.916	524
270.302	521.8
270.688	533
271.074	532.2
271.46	536.4
271.846	552.8
272.232	528.6
272.618	525
273.004	533.6
273.391	534
273.777	542.2
274.164	528
274.55	535.4
274.937	535
275.324	524
275.71	535.6
276.097	538
276.484	525.4
276.871	532.4
277.258	526.8
277.645	517.2
278.032	533
278.419	528.4
278.807	529.6
279.194	528
279.581	526.2
279.969	532.4
280.356	530
280.744	539
281.131	547.2
281.519	538.4
281.907	528.6
282.295	531.8
282.682	538.6
283.07	534.4
283.458	536.4
283.846	537.6
284.235	534.6
284.623	535.8
285.011	514.8
285.399	523.6
285.788	522.4
286.176	513.4
286.565	534.8
286.953	518.4
287.342	523.8
287.731	524.6
288.119	519.2
288.508	522.2
288.897	529.2
289.286	514.8
289.675	528.2
290.064	540.6
290.453	523.8
290.821	527.4
291.21	527.4
291.599	520.2
291.989	534
292.378	529.4
292.768	544
293.157	529.6
293.547	538
293.936	521.4
294.326	527
294.716	525.2
295.106	522.4
295.496	532.2
295.886	531.8
296.276	526.2
296.666	522
297.056	518.8
297.446	512.8
297.836	538.8
298.227	520.8
298.617	532.4
299.008	538.4
299.398	529.2
299.789	520.8
300.179	528.6
300.57	545.6
300.961	526.6
301.352	527.4
301.742	525.2
302.133	532.6
302.524	524.4
302.915	530.8
303.307	518.4
303.698	531.8
304.089	542.6
304.48	527
304.872	532.2
305.263	533.8
305.655	521.4
306.046	536.6
306.438	523.4
306.829	520
307.221	539.2
307.613	529.4
308.005	533.2
308.397	535
308.789	542.6
309.181	546.8
309.573	541.6
309.965	538.6
310.357	524
310.749	540.2
311.142	521.8
311.534	528
311.926	528
312.319	531.4
312.711	520.2
313.104	541.2
313.497	534.6
313.889	557.4
314.282	540.4
314.675	546.2
315.068	527.4
315.461	536.2
315.854	552.4
316.247	530.4
316.64	531.4
317.033	530
317.405	527.8
317.798	527.6
318.192	531.8
318.585	521.2
318.979	536.4
319.372	528.4
319.766	528.4
320.16	542.2
320.553	541.2
320.947	541.6
321.341	525.8
321.735	525.2
322.129	519.2
322.523	550.8
322.917	522
323.311	535
323.705	530.4
324.099	535.2
324.494	537
324.888	531
325.282	533.2
325.677	536.6
326.071	534.4
326.466	539.6
326.861	539
327.255	541
327.65	533.6
328.045	542.6
328.44	535.2
328.835	530.8
329.23	524.6
329.625	546
330.02	529.2
330.415	542.6
330.81	527.4
331.206	529.8
331.601	521
331.996	549
332.37	548.4
332.766	521.2
333.161	551
333.557	527.6
333.953	536.2
334.348	852
334.744	534.8
335.14	524.2
335.536	528.6
335.932	538.4
336.328	530.6
336.724	526.2
337.12	532.6
337.516	528.8
337.913	540.8
338.309	539.4
338.705	524
339.102	542
339.498	523.8
339.895	535
340.291	519
340.688	533.4
341.085	524.6
341.481	526.2
341.878	531.8
342.275	545.8
342.672	523.2
343.069	532.2
343.466	516.8
343.842	532.2
344.239	524.6
344.636	534.6
345.033	522
345.431	522.4
345.828	526.8
346.225	520
346.623	551.4
347.02	526.6
347.418	529.4
347.816	536
348.213	525
348.611	533.8
349.009	528
349.407	536.8
349.805	517.4
350.203	520
350.601	536.2
350.999	523.4
351.397	571.8
351.795	530.8
352.193	529.6
352.57	529.8
352.969	535
353.367	525
353.766	514.2
354.164	530
354.563	530
354.961	520
355.36	524.8
355.759	517.8
356.158	521.6
356.557	515.4
356.956	528
357.355	519.8
357.754	526.2
358.153	524.2
358.552	547.4
358.951	525
359.35	539.2
359.75	521.2
360.149	510.6
360.527	511.8
360.926	514.4
361.326	523.8
361.726	522.4
362.125	521.6
362.525	528.8
362.925	520
363.325	526.4
363.724	520.8
364.124	515.4
364.524	517.2
364.924	518.4
365.324	524.8
365.725	512.2
366.125	534
366.525	527.2
366.904	518
367.304	508.4
367.705	538.8
368.105	530.6
368.506	521.4
368.906	524
369.307	512
369.708	526.2
370.108	513
370.509	526.6
370.91	520
371.311	523.8
371.712	519.8
372.113	518.8
372.514	514.6
372.894	529.4
373.295	522.6
373.696	529.6
374.097	531.4
374.499	548.2
374.9	514.6
375.301	510.6
375.703	521.6
376.105	513
376.506	520.8
376.908	529.2
377.309	524
377.711	526.8
378.113	526.6
378.493	520.8
378.895	521.4
379.297	525.8
379.699	516.6
380.102	524.2
380.504	516.4
380.906	511.2
381.308	542
381.71	518.6
382.113	533.8
382.515	515.4
382.918	521.6
383.299	512.6
383.701	522
384.104	518.8
384.507	502.4
384.909	513.4
385.312	508.2
385.715	513.6
386.118	515.2
386.521	513.6
386.924	531.8
387.327	514.4
387.709	498.8
388.112	509.8
388.515	519.4
388.918	523.8
389.322	511.8
389.725	518.4
390.129	533.2
390.532	530.2
390.936	513.4
391.339	507.8
391.743	525.8
392.125	517
392.529	530.6
392.933	522.8
393.337	524.6
393.74	519.4
394.144	519.4
394.548	518.4
394.953	516.6
395.357	525
395.761	516.8
396.144	522.2
396.548	516.2
396.952	520.8
397.357	521.8
397.761	520.2
398.166	515.8
398.57	519.4
398.975	514
399.379	519
399.763	562.6
400.168	520.6
400.572	518.6
400.977	513.2
401.382	536.4
401.787	531.6
402.192	538.4
402.597	525.8
403.002	511.4
403.386	529.4
403.791	527
404.197	507.6
404.602	521.6
405.007	519.4
405.413	514.6
405.818	522.8
406.224	508.2
406.608	514
407.014	510
407.42	528
407.825	522.4
408.231	520
408.637	519.2
409.043	525.6
409.449	513
409.834	514
410.24	524.2
410.646	530.2
411.052	530.4
411.458	514.8
411.865	519
412.271	527.4
412.677	516.8
413.062	522.6
413.469	514
413.875	537
414.282	529.2
414.689	512.8
415.095	527.2
415.502	511
415.888	516
416.294	502.4
416.701	548.4
417.108	519.6
417.515	523.6
417.923	517.2
418.33	534.4
418.715	536
419.123	520.4
419.53	521.2
419.937	530
420.345	535.6
420.752	517
421.16	533.2
421.546	520.4
421.953	522
422.361	512
422.769	519.2
423.177	519.8
423.585	534.4
423.992	539.8
424.379	529.8
424.787	534.6
425.195	537.6
425.603	520.8
426.011	529.6
426.419	532.8
426.806	523.6
427.214	529.6
427.623	533.6
428.031	539.8
428.44	525.8
428.848	536
429.235	534.4
429.644	523.8
430.053	520.6
430.461	539.8
430.87	549.6
431.279	529.6
431.666	520.2
432.075	522.8
432.484	520.2
432.893	520.8
433.302	534.6
433.711	557.2
434.099	524.6
434.508	525
434.918	520.4
435.327	529.4
435.737	528.2
436.125	522.8
436.534	535.6
436.944	540.8
437.353	545.6
437.763	564
438.173	543
438.561	561.4
438.971	549.2
439.381	557
439.791	577
440.201	561
440.589	579
440.999	595
441.409	587.2
441.819	579.2
442.23	610.6
442.619	611.8
443.029	617.4
443.439	629.6
443.85	635.8
444.26	638.8
444.649	642.2
445.06	638.2
445.471	637.2
445.881	642
446.292	667.2
446.682	670.2
447.092	653
447.503	705.2
447.914	671.8
448.325	667.4
448.715	666.8
449.126	665.8
449.537	678.6
449.948	674.8
450.338	684.8
450.75	684.4
451.161	689
451.572	696
451.984	704.2
452.374	688.2
452.786	701.6
453.197	708.4
453.609	717
453.999	694.6
454.411	698.4
454.823	718.4
455.235	720
455.647	707.2
456.037	712.6
456.449	697
456.862	729.6
457.274	715.2
457.665	717.8
458.077	728.4
458.489	752
458.902	726.4
459.293	725.6
459.705	734
460.118	720.4
460.53	725.6
460.921	735.2
461.334	736.4
461.747	744.8
462.16	757.8
462.551	748.4
462.964	763.4
463.377	749.4
463.79	745
464.182	761.2
464.595	758.6
465.008	764.8
465.421	772.2
465.813	758.6
466.226	771.4
466.64	772
467.053	808
467.445	788
467.859	790
468.272	781.6
468.686	793.6
469.078	778.6
469.492	780.4
469.906	785.4
470.298	790
470.712	778.2
471.126	813
471.54	787.2
471.933	792.2
472.347	794.2
472.761	796.8
473.175	778.8
473.568	795.4
473.982	788.6
474.397	800.4
474.79	806.8
475.204	790
475.619	796
476.033	801.2
476.426	811.8
476.841	786.4
477.256	824
477.649	784.2
478.064	787.2
478.479	794.4
478.872	790.2
479.287	783.4
479.702	780.8
480.118	791.4
480.511	792.4
480.927	782.2
481.342	780.2
481.736	790.8
482.151	778.8
482.566	791.6
482.96	797.8
483.376	789.4
483.792	782.2
484.186	789.8
484.602	785.2
485.017	794
485.412	786.4
485.827	783.4
486.243	783.6
486.638	795.6
487.054	786.2
487.47	784.4
487.865	774.4
488.281	776.4
488.697	780.4
489.092	778.2
489.508	761.6
489.925	785.6
490.32	770.6
490.736	777
491.153	773.2
491.548	767.6
491.964	780.8
492.381	755
492.776	760.2
493.193	756.8
493.61	769
494.006	756.4
494.422	762.6
494.84	750.8
495.235	759.2
495.652	744.8
496.069	751.2
496.465	743.6
496.883	763.4
497.3	763.2
497.696	743.6
498.113	758.6
498.509	738.2
498.927	731
499.344	728.6
499.741	736.2
500.158	732
500.576	738.2
500.973	740.6
501.39	725.6
501.787	726
502.205	731.8
502.623	720.2
503.02	716
503.438	708.8
503.856	711.8
504.253	706.4
504.671	714.2
505.068	707.2
505.486	707.4
505.905	723.6
506.302	708.8
506.72	713.8
507.118	690.2
507.536	696.2
507.955	702.8
508.352	702.8
508.771	699.4
509.169	702.8
509.587	689.6
510.006	686.8
510.404	687
510.823	687.2
511.221	678.2
511.64	687
512.038	690.8
512.457	681.6
512.877	680.6
513.275	671.4
513.694	667.8
514.092	678.6
514.512	668
514.91	680.6
515.33	673
515.749	673
516.148	668.2
516.568	673.6
516.966	668.2
517.386	665.6
517.785	664.2
518.205	654.4
518.603	657
519.024	652.6
519.444	661.2
519.843	660.6
520.263	658.2
520.662	660.2
521.082	653.6
521.481	651.2
521.902	645.2
522.301	646.4
522.722	647.4
523.121	648.8
523.542	648.4
523.963	639.4
524.362	641.8
524.783	644.2
525.183	641.2
525.604	635.4
526.003	638
526.425	624.8
526.824	636
527.246	646.8
527.646	639.8
528.067	619
528.467	633.8
528.888	624.6
529.289	629
529.71	627.4
530.11	619.8
530.532	610.2
530.932	598.4
531.354	606.6
531.755	625.6
532.176	622.4
532.577	603.4
532.999	610
533.4	596.2
533.822	617.6
534.223	603.4
534.645	596.2
535.046	606.4
535.468	601.4
535.869	607.8
536.292	593.2
536.693	630.2
537.115	602.2
537.516	600.6
537.939	590
538.34	618.6
538.742	604.4
539.165	602
539.566	595
539.989	598.2
540.391	594.2
540.814	598
541.216	599.2
541.639	598.8
542.041	603
542.464	592.2
542.866	587.6
543.268	588
543.691	593
544.093	603.4
544.517	611
544.919	583.2
545.343	606.6
545.745	593.4
546.147	588.8
546.571	595
546.974	578.4
547.398	581
547.8	598.6
548.224	581.4
548.627	584.2
549.03	579.2
549.454	583.6
549.857	575.6
550.281	571
550.684	571.4
551.087	591
551.512	574.4
551.915	575.4
552.34	571
552.743	569.2
553.146	568
553.571	572
553.975	590
554.399	571.8
554.803	604.4
555.207	566
555.632	560.6
556.036	575.4
556.461	553
556.865	568.6
557.268	562
557.694	565.4
558.098	577
558.502	560.2
558.927	557.4
559.332	563
559.736	559.6
560.162	561.8
560.566	555.4
560.992	553.8
561.396	561.6
561.801	556.6
562.227	552
562.631	550.4
563.036	557.8
563.462	564.2
563.867	552
564.272	541.8
564.698	556
565.103	546.8
565.508	565.4
565.935	556.8
566.34	556.4
566.745	567.2
567.172	549.6
567.577	565.4
567.982	556.2
568.409	552.8
568.815	545.6
569.22	550
569.626	550.8
570.053	538
570.459	552.4
570.865	552.2
571.292	551.6
571.698	553.2
572.104	533.4
572.531	542.8
572.937	550.4
573.343	549.8
573.75	545.4
574.177	549.8
574.583	543.6
574.99	537.4
575.396	540.6
575.824	538.2
576.231	542
576.637	532.4
577.065	565.8
577.472	534.6
577.879	533.4
578.286	539.8
578.714	523.6
579.121	542.2
579.528	542
579.935	546.8
580.364	533.8
580.771	520.2
581.178	531
581.585	539.2
582.014	544
582.421	521.6
582.829	534.4
583.236	540.2
583.644	525.8
584.073	530.8
584.481	536
584.889	525.6
585.296	536.2
585.726	530.2
586.134	520
586.542	525
586.95	547.8
587.358	521.4
587.787	526.4
588.196	515.8
588.604	529.2
589.012	527.8
589.421	517.8
589.851	522.8
590.259	525.8
590.668	519.6
591.076	553
591.485	526
591.894	523.8
592.324	530.4
592.733	528.8
593.142	519.8
593.551	524.6
593.96	555.4
594.369	514.4
594.8	516.4
595.209	516.8
595.618	509.6
596.028	519.4
596.437	519
596.847	526.6
597.256	520.4
597.687	523.4
598.097	524.8
598.507	502.2
598.917	520
599.327	523
599.736	520.2
600.146	515.6
600.556	512.6
600.988	529.6
601.398	513.4
601.808	530.2
602.219	509.2
602.629	520.4
603.039	510
603.45	537.4
603.86	516
604.271	517.4
604.703	509.4
605.114	514.6
605.525	512.6
605.935	514.2
606.346	519
606.757	522.6
607.168	509.8
607.579	511.8
607.99	518
608.402	518.2
608.813	510.8
609.224	501.4
609.636	505
610.047	505
610.48	510
610.892	517.4
611.303	515.2
611.715	512.8
612.127	500.2
612.539	507.2
612.95	509.6
613.362	506.2
613.774	503.2
614.186	504.2
614.599	511.4
615.011	510.4
615.423	518.4
615.835	501
616.248	511.6
616.66	513
617.073	509
617.485	512.8
617.898	524
618.311	506.4
618.723	510.4
619.136	539.4
619.549	526
619.962	528
620.375	512.2
620.788	517.4
621.201	499
621.614	514.8
622.028	514.4
622.441	521.2
622.854	524.2
623.268	512
623.681	512.6
624.095	509.6
624.509	511.8
624.922	513.8
625.336	500
625.728	512.4
626.142	525
626.556	524
626.97	505.6
627.384	505.4
627.799	504.2
628.213	519.2
628.627	508.8
629.041	499.8
629.456	504.4
629.87	501.4
630.285	511.4
630.699	507
631.093	506.8
631.507	499.2
631.922	511
632.337	511
632.752	501
633.167	513.2
633.582	501.2
633.997	500.2
634.412	505
634.806	503.2
635.221	498.8
635.637	512
636.052	496.2
636.468	505.2
636.883	528.2
637.299	504.2
637.715	501
638.109	506.2
638.525	492.8
638.941	516.6
639.357	513
639.773	512
640.189	499
640.584	512
641	508.6
641.416	491
641.832	505.2
642.249	502.2
642.665	503.4
643.06	508.4
643.477	513.8
643.894	497.8
644.31	503.6
644.727	500.4
645.123	506.8
645.54	495.6
645.957	506.6
646.374	518.6
646.77	504
647.187	532.6
647.604	502.4
648.021	492.6
648.439	498
648.835	506.8
649.252	501.2
649.67	497.6
650.088	504
650.484	506.8
650.902	505.8
651.32	510.8
651.738	504
652.134	500.8
652.552	513.4
652.971	508.4
653.389	498.6
653.786	508.2
654.204	512
654.622	494.8
655.019	509
655.438	505.2
655.857	498.4
656.275	504.4
656.673	511.6
657.091	509.8
657.51	499.8
657.908	502.6
658.327	520.2
658.746	487.4
659.144	507.2
659.563	521.8
659.982	499.2
660.38	489.4
660.8	504
661.219	513
661.617	504.8
662.037	503.6
662.457	515.6
662.855	491.6
663.275	530.6
663.695	507.8
664.094	503.6
664.514	508.2
664.934	490.8
665.333	509.8
665.753	490.6
666.152	494
666.572	495.8
666.993	509.8
667.392	501.6
667.812	504.4
668.212	500.6
668.632	517
669.053	496.8
669.453	508
669.874	504.8
670.273	499.4
670.694	492
671.116	511.2
671.515	507.6
671.937	499.6
672.337	498.4
672.758	496.6
673.158	507.6
673.58	491
673.98	501.4
674.402	511
674.824	504.6
675.224	494.2
675.646	503.6
676.047	500.8
676.469	502.8
676.869	505.4
677.292	498.2
677.693	491
678.115	497.2
678.516	502
678.939	503.6
679.34	502
679.762	514
680.164	505.2
680.586	494
680.988	500.4
681.411	516.8
681.812	499
682.236	492.2
682.637	495.2
683.061	488.6
683.462	499.6
683.864	493.8
684.288	507.8
684.69	489.4
685.114	505.4
685.516	505.6
685.94	492.4
686.342	500.6
686.766	492.4
687.168	498.2
687.571	511.6
687.995	503.2
688.398	493.2
688.822	496.6
689.225	515.8
689.628	514.4
690.052	493.6
690.456	507.4
690.88	492.8
691.284	503.6
691.687	501
692.112	492
692.515	487.8
692.919	499
693.344	496.4
693.747	490.8
694.173	493.2
694.577	505.8
694.98	493.4
695.406	491.6
695.81	488.8
696.214	495.6
696.64	506.8
697.044	503.4
697.448	496.2
697.874	492.2
698.279	490.8
698.684	489
699.11	489.2
699.514	495
699.919	505.4
700.324	489.8
700.75	497.4
701.156	490.6
701.561	510
701.987	501.6
702.393	504.2
702.798	498.2
703.203	496.8
703.63	495.2
704.036	487.6
704.442	493.2
704.847	482.4
705.274	494.6
705.68	502.2
706.086	503.2
706.492	489.6
706.92	497.2
707.326	505.8
707.732	490
708.139	495.2
708.545	501.4
708.973	495.6
709.38	495
709.786	485.6
710.193	505.6
710.6	498.2
711.028	493.6
711.435	487.8
711.842	493.4
712.249	492.8
712.656	491.4
713.064	503
713.492	484.6
713.9	496.2
714.307	496
714.715	505.6
715.123	501.4
715.53	494.8
715.938	513.8
716.367	501.4
716.775	498.2
717.184	495.6
717.592	494.8
718	505
718.408	524
718.816	535.8
719.225	498.6
719.633	501.6
720.042	490.4
720.472	489.6
720.881	503.8
721.29	500.2
721.699	498.6
722.108	505.4
722.517	491.8
722.926	493
723.335	505.4
723.744	498.4
724.154	494.6
724.563	493.6
724.973	489.8
725.382	494.8
725.792	493.8
726.202	485.8
726.612	496.6
727.022	492.8
727.432	495.6
779.813	499.2
780.223	520.2
780.634	492
781.044	493.2
781.454	495.8
781.865	502.8
782.276	495.4
782.686	504
783.097	494
783.508	485.8
783.919	498.4
784.33	512.2
784.741	506.4
785.152	494.6
785.563	481.2
785.974	497
786.386	496.2
786.776	498.2
787.188	490.4
787.599	491.6
788.011	498.4
788.423	492.4
788.835	489.6
789.247	492
789.659	494.2
790.071	496.8
790.483	528.6
790.874	492.4
791.286	506.2
791.699	491
792.111	492.4
792.524	499.6
792.937	496.2
793.349	481.4
793.741	488.8
794.154	492.8
794.567	506.6
794.98	490
795.393	480.8
795.785	505.8
796.198	499.4
796.612	500.8
797.026	495
797.439	475.4
797.831	490.8
798.245	485.2
798.659	495.6
799.073	490.6
799.487	487.6
799.88	485
800.294	495.6
800.708	488
801.123	494.8
801.516	510.4
801.93	491.4
802.345	481.6
802.76	489.4
803.153	498.8
803.568	504.4
803.983	506.2
804.377	502.6
804.792	488.2
805.207	491.2
805.601	493.8
806.016	520.8
806.432	495.6
806.826	513
807.242	510.2
807.658	496
808.052	494.4
808.468	494.6
808.884	488
809.279	488.6
809.695	502.6
810.111	505.6
810.506	502
810.922	510.2
811.339	496.2
811.734	501.8
812.151	493.6
812.546	497.4
812.963	489.6
813.38	497
813.776	491.2
814.193	511.6
814.589	496.6
815.006	488.6
815.402	484.2
815.82	486.8
816.237	496.4
816.633	490.6
817.051	488.2
817.448	489.4
817.866	485
818.262	509.4
818.68	492.2
819.077	490.8
819.495	488.2
819.892	522
820.311	491
820.708	495
821.127	489.4
821.524	500
821.943	491.8
822.34	510.6
822.759	493
823.157	488.6
823.576	507.4
823.974	496.4
824.393	580.8
824.791	491.8
825.189	486.8
825.609	498
826.007	494.6
826.427	486.6
826.826	487.8
827.246	505.8
827.644	482.6
828.043	501.8
828.463	492.2
828.862	491.4
829.261	491
829.682	483.6
830.081	496.6
830.502	491.2
830.901	495.2
831.301	490.2
831.722	482.6
832.121	493.6
832.521	485.8
832.943	485.8
833.342	489
833.742	487
834.164	496.4
834.564	484.6
834.965	493.4
835.386	492
835.787	494.6
836.188	492
836.588	487.6
837.01	495.2
837.411	487.2
837.812	488.8
838.213	492.8
838.636	484.6
839.037	545
839.438	492.6
839.84	488.2
840.263	498
840.664	498.2
841.066	484.8
841.468	495.8
841.891	493.2
842.293	503.6
842.695	501
843.098	501.8
843.5	488.4
843.902	495.8
844.326	491.4
844.729	487.8
845.131	502.4
845.534	487.4
845.937	502.8
846.34	508.6
846.764	493.2
847.167	496
847.571	480.2
847.974	493
848.377	490.4
848.781	516.2
849.184	497.8
849.588	494.6
849.992	496.2
850.396	492.6
850.821	505.4
851.225	492.2
851.63	483
852.034	499.8
852.438	483.4
852.843	504.2
853.247	481.2
853.652	483.2
854.057	508.6
854.462	491.6
854.867	495.4
855.272	514.8
855.677	493.2
856.082	484.2
856.487	484.8
856.893	490.8
857.298	492
857.704	481.8
858.11	497.6
858.516	497.6
858.922	489
859.328	496.2
859.734	494.6
860.14	492.4
860.525	494.2
860.931	481.2
861.338	492
861.745	493.2
862.151	496
862.558	497.6
862.965	486.2
863.372	479.2
863.779	485.2
864.186	505.4
864.572	490.6
864.98	513.4
865.387	517.2
865.795	489.6
866.203	492
866.61	486.4
867.018	499
867.405	490.8
867.813	490
868.221	488.6
868.63	484.6
869.038	498.2
869.425	521
869.834	488.6
870.243	479.8
870.652	487.4
871.039	486
871.448	488.8
871.857	490.8
872.266	485
872.654	484
873.064	487.6
873.473	490.6
873.883	485
874.271	486.4
874.681	497
875.091	470.6
875.48	495
875.89	494
876.3	478.2
876.689	483
877.1	491
877.51	481.6
877.9	504.6
878.31	489.6
878.721	514
879.111	486.2
879.522	482.8
879.933	483.8
880.323	482.2
880.734	481.4
881.125	488.4
881.536	486.4
881.948	488
882.338	495.2
882.75	501.8
883.141	496.4
883.553	500
883.944	508.2
884.356	497
884.769	493.4
885.16	494.2
885.573	485.6
885.964	488.6
886.377	495.8
886.768	484.6
887.181	494
887.573	491
887.987	498
888.378	506.2
888.792	495.4
889.184	530.2
889.598	483
889.99	495.6
890.383	483.2
890.797	481.8
891.19	500.4
891.604	493
891.997	484.4
892.411	480.4
892.805	488.8
893.198	480.2
893.613	476
894.006	489.6
894.421	480.8
894.815	485.2
895.209	487.8
895.624	513.6
896.018	495.8
896.412	485.4
896.828	489.2
897.222	489.8
897.617	484.2
898.033	505
898.427	483.2
898.822	491.6
899.239	482.6
899.634	483.2
900.029	512.2
900.424	482.2
900.841	474
901.236	503.2
901.632	496.8
902.027	532.2
902.445	496.4
902.841	492
903.237	486
903.633	491.2
904.05	490.8
904.447	486.8
904.843	493.6
905.24	489.4
905.636	477.4
906.033	490.8
906.451	492.2
906.848	472.2
907.246	489.4
907.643	492.6
908.04	489.8
908.438	503
908.835	494.6
909.254	487.2
909.652	492.2
910.05	491.2
910.448	488.2
910.846	489.2
911.244	485.6
911.643	493.8
912.041	488.8
912.44	498.2
912.839	484.2
913.237	480.8
913.636	482.6
914.035	494
914.434	484.2
914.834	499.2
915.233	496.8
915.633	488.4
916.032	485.8
916.432	488.2
916.832	493
917.232	485.8
917.632	488.2
918.032	495.4
918.432	484.6
918.833	488
919.233	491.6
919.634	479.6
920.035	502.4
920.436	489
920.837	501
921.238	487.6
921.639	485.8
922.019	485.2
922.42	488.6
922.822	492.8
923.224	494
923.625	485.6
924.027	488
924.429	513
924.81	493.6
925.212	485.2
925.615	489
926.017	494.6
926.42	489.6
926.801	486.2
927.204	484
927.607	490
928.01	503
928.413	490.4
928.795	473.6
929.199	483.2
929.602	485.6
930.006	483.2
930.388	477
930.792	484.6
931.196	484.8
931.579	511.6
931.983	477.6
932.388	521.2
932.771	479.6
933.176	480
933.58	491.6
933.964	491.8
934.369	488.6
934.774	481.8
935.158	481.8
935.563	487.2
935.947	479
936.353	488.4
936.759	487.4
937.143	495.8
937.549	485
937.934	497.6
938.34	504.6
938.746	483.6
939.131	485.2
939.538	476
939.923	483.2
940.33	480
940.716	491
941.123	491.4
941.508	500.6
941.916	498
942.302	492.2
942.709	473.2
943.096	485.2
943.503	487.6
943.89	481.6
944.298	485.4
944.685	512
945.072	494.4
945.48	489.4
945.867	477.2
946.276	476.8
946.663	499.8
947.051	499.8
947.46	495.6
947.848	493
948.257	479.2
948.645	488.2
949.033	482.8
949.443	479.6
949.831	516.6
950.22	483.4
950.63	493.2
951.018	513.8
951.407	492.8
951.796	476.6
952.207	495.8
952.596	492
952.985	477
953.375	516.6
953.786	485.2
954.176	478.8
954.566	496.2
954.956	488
955.367	486.4
955.758	506.4
956.148	479.8
956.539	497.6
956.929	479.2
957.341	475
957.732	486.8
958.123	498.2
958.515	476.8
958.906	498.6
959.297	487
959.689	485.2
960.102	478.2
960.494	495
960.886	489.8
961.278	482.6
961.67	499.6
962.062	518.2
962.455	479.2
962.847	482.6
963.24	484.2
963.633	489.4
964.026	481.4
964.419	483.8
964.812	484
965.206	473.2
965.599	487.4
965.993	483.2
966.386	480.2
966.78	484
967.174	492
967.569	481.6
967.963	484.2
968.357	475.4
968.752	476
969.146	474.6
969.541	476.6
969.936	474.6
970.331	484.8
970.705	488.6
971.1	483
971.496	488
971.892	478
972.287	483
972.683	483
973.079	485.2
973.454	492.4
973.85	484.8
974.247	492.8
974.643	505.4
975.04	481.8
975.415	487.4
975.812	481.2
976.209	481
976.607	473.8
976.982	492.2
977.38	499.2
977.778	485.4
978.175	489.6
978.552	487.6
978.95	485.8
979.348	487
979.725	529.6
980.123	489
980.522	487.4
980.899	486
981.298	475.4
981.697	483.2
982.075	479.6
982.474	477.6
982.852	489
983.251	493.8
983.651	488
984.029	494.2
984.429	488.4
984.808	474
985.208	486
985.609	476.2
985.987	477.4
986.388	477.6
986.768	485
987.168	478.6
987.548	485.6
987.949	491.8
988.329	485.6
988.731	473.8
989.111	477.2
989.491	482
989.893	482.2
990.273	491.2
990.676	480.8
991.057	476.8
991.459	486.4
991.84	471.8
992.221	479.6
992.624	500
993.006	487.8
993.388	486.6
993.791	496.4
994.173	486.4
994.576	512.4
994.959	473.4
995.341	478.2
995.724	482.4
996.128	480.4
996.511	484
996.894	484.8
997.298	485.4
997.681	493.8
998.065	486.4
998.448	479.2
998.854	493.6
999.237	480.6
999.621	492.4
1000.01	498.6
1000.39	481.2
1000.8	479.2
1001.18	492.6
1001.56	487.2
1001.95	491
1002.33	478.8
1002.72	488
1003.13	483.6
1003.51	479.2
1003.9	484.6
1004.28	500.2
1004.67	481.6
1005.06	486.2
1005.44	512.2
1005.83	472.6
1006.21	481.4
1006.6	480.6
1006.99	489.6
1007.37	490.2
1007.76	487
1060.12	477.2
1060.51	482
1060.89	486
1061.28	495.8
1061.67	497
1062.06	490.4
1062.45	494
1062.83	478
1063.22	487.2
1063.61	512.4
1064	493
1064.39	477.2
1064.78	487.2
1065.14	499.8
1065.53	478.4
1065.92	484.4
1066.31	479
1066.7	488.4
1067.09	492
1067.46	495.2
1067.85	481.4
1068.24	479.4
1068.63	491
1069.02	475.2
1069.39	484
1069.78	483.8
1070.17	474.2
1070.57	475.8
1070.93	486.8
1071.33	479.8
1071.72	482.6
1072.11	473.6
1072.48	476.4
1072.87	479
1073.26	478.8
1073.64	483.2
1074.03	473.4
1074.4	478.4
1074.79	483
1075.19	488
1075.56	482
1075.95	480.6
1076.34	485.2
1076.72	479.6
1077.11	484.4
1077.48	496
1077.88	489.4
1078.25	484.6
1078.64	491.8
1079.02	482.4
1079.41	494.8
1079.78	481.2
1080.18	477
1080.55	536.6
1080.95	477.6
1081.32	483.8
1081.72	487
1082.09	472.6
1082.49	477.8
1082.86	479.4
1083.24	470.8
1083.63	473.6
1084.01	485.6
1084.38	491.2
1084.78	477.4
1085.16	486.6
1085.55	495.8
1085.93	489
1086.31	474.8
1086.7	497.6
1087.08	483.4
1087.46	482.2
1087.83	471.4
1088.23	485.8
1088.61	480
1088.99	481.6
1089.36	481.4
1089.76	478.6
1090.14	483.6
1090.52	485.4
1090.9	483.4
1091.27	494
1091.67	497.2
1092.05	489.8
1092.43	478.4
1092.81	486.2
1093.19	493
1093.57	481
1093.95	472.6
1094.35	489.8
1094.73	491.6
1095.11	483.6
1095.49	476.8
1095.87	486.2
1096.25	492.4
1096.63	491.4
1097.01	490
1097.39	484
1097.77	483.6
1098.15	485.6
1098.53	474.8
1098.91	477
1099.29	485.4
1099.68	490
1100.06	484.6
1100.44	486.2
1100.82	481.6
1101.18	487.2
1101.56	485.2
1101.95	477.2
1102.33	477.8
1102.71	480.4
1103.1	486.4
1103.48	472.8
1103.86	477.2
1104.22	486.8
1104.61	480.6
1104.99	482.6
1105.38	468.8
1105.76	480.6
1106.12	481.8
1106.51	507.2
1106.89	491.8
1107.26	482.4
1107.64	491.8
1108.03	482.6
1108.41	485.2
1108.78	478.8
1109.16	484.4
1109.55	485.2
1109.91	473.6
1110.3	478.4
1110.69	486.8
1111.05	478.2
1111.44	484
1111.8	481.6
1112.19	486
1112.58	482
1112.94	478.2
1113.33	483.8
1113.7	476.4
1114.09	476.2
1114.45	478.2
1114.84	481.8
1115.21	487.2
1115.6	468.2
1115.96	490
1116.35	485.4
1116.72	481.8
1117.11	489.2
1117.48	487
1117.85	484.2
1118.24	495.6
1118.6	491.4
1118.99	480.8
1119.36	486.4
1119.73	487.6
1120.12	478.4
1120.49	474.2
1120.86	489
1121.25	482.2
1121.62	473.4
1121.99	475.8
1122.38	495
1122.76	474
1123.13	474
1123.5	482.4
1123.89	492.4
1124.26	471
1124.63	485.4
1125	473.8
1125.4	468.2
1125.77	478.2
1126.14	469.6
1126.51	474.8
1126.88	486
1127.26	477.4
1127.63	471
1128.02	478.4
1128.4	467.4
1128.77	471.2
1129.14	480.8
1129.52	482.4
1129.89	484.6
1130.26	474.8
1130.64	475.8
1131.01	475.8
