#lambda/nm	C1
208.295	465
208.67	432.8
209.045	391
209.419	397.6
209.794	532
210.169	516.2
210.544	616.4
210.919	538.2
211.295	525.6
211.67	537
212.045	528.4
212.421	524.2
212.796	559
213.172	526
213.547	525.4
213.923	523.4
214.299	517.6
214.675	541.2
215.051	537.2
215.427	532.8
215.803	549
216.179	537.2
216.555	525.8
216.932	537.4
217.308	525.2
217.684	530.6
218.061	547.6
218.438	533
218.814	518.4
219.191	534
219.568	519.4
219.945	528.4
220.322	532.8
220.699	536.8
221.076	540
221.453	529.6
221.83	518.6
222.208	525.6
222.585	522.2
222.962	531.6
223.34	536.8
223.717	526.2
224.095	523.2
224.473	525.8
224.851	529.2
225.229	516.8
225.607	542
225.985	519.4
226.363	532.8
226.741	529.6
227.119	532
227.497	531.8
227.876	523
228.254	536.2
228.633	537
229.011	532.8
229.39	531.4
229.769	521.4
230.148	534.8
230.527	548.4
230.905	527.4
231.284	530.4
231.664	530.2
232.043	533
232.422	523.4
232.801	527.2
233.181	527
233.56	527
233.94	528.2
234.319	514.8
234.699	523.6
235.079	560.2
235.458	565.2
235.838	544.2
236.218	524.2
236.598	524.4
236.978	521.2
237.358	525.8
237.738	529.8
238.119	535
238.499	521.2
238.88	536.4
239.26	546.2
239.641	518.2
240.021	520.8
240.402	528.6
240.783	524.8
241.163	526
241.544	527.4
241.925	527.6
242.306	545.2
242.687	525
243.069	531.6
243.45	545.2
243.831	521
244.212	526.8
244.594	559.8
244.975	539.2
245.357	529.6
245.739	521
246.12	527.2
246.502	540.2
246.884	525
247.266	524.2
247.648	532.6
248.03	546.8
248.412	539.2
248.794	534.4
249.176	523.8
249.559	538.4
249.941	525.8
250.323	519.2
250.706	523.8
251.089	535.2
251.471	539
251.854	528.2
252.237	526.4
252.62	546
253.002	528.2
253.385	532.8
253.769	530.8
254.152	529
254.535	530.6
254.918	526.6
255.301	527.6
255.685	530
256.068	531.6
256.452	538.2
256.835	537.6
257.219	533.2
257.603	538.4
257.986	521.6
258.37	538.8
258.754	522
259.138	531
259.522	538
259.906	529
260.29	533.4
260.675	525.2
261.059	531.6
261.443	521.8
261.828	536.4
262.212	536.4
262.597	516.2
262.981	519.4
263.366	535.2
263.751	533.2
264.136	524
264.521	523.2
264.906	529
265.291	535.2
265.676	520
266.061	534.2
266.446	539.2
266.831	529.4
267.217	547.6
267.602	540.8
267.987	535
268.373	527.8
268.759	539.8
269.144	532
269.53	529.8
269.916	525
270.302	530.4
270.688	523.8
271.074	530.2
271.46	529.2
271.846	552.2
272.232	528.2
272.618	526.8
273.004	522.4
273.391	533.8
273.777	541.8
274.164	525.2
274.55	535.6
274.937	535.4
275.324	527.2
275.71	534
276.097	531.2
276.484	516.2
276.871	523.6
277.258	525.6
277.645	517.6
278.032	518.4
278.419	523.8
278.807	531.4
279.194	527.8
279.581	520.6
279.969	534
280.356	520
280.744	531.6
281.131	549.2
281.519	535.2
281.907	523.6
282.295	530.4
282.682	536.4
283.07	530
283.458	528
283.846	533.4
284.235	528.2
284.623	534.8
285.011	518
285.399	532.6
285.788	524.6
286.176	522.8
286.565	535.8
286.953	520.4
287.342	523.4
287.731	524.4
288.119	522.6
288.508	531
288.897	529.4
289.286	516.8
289.675	535.6
290.064	536.2
290.453	522.2
290.821	526
291.21	546.4
291.599	527.6
291.989	530.2
292.378	537.8
292.768	542.8
293.157	536
293.547	541.6
293.936	525.6
294.326	522.2
294.716	539.8
295.106	527.6
295.496	542.6
295.886	540.6
296.276	525
296.666	528.4
297.056	518.8
297.446	518.8
297.836	542.8
298.227	527
298.617	532.4
299.008	543.6
299.398	533
299.789	525.8
300.179	531.8
300.57	541.2
300.961	526
301.352	532.6
301.742	532.8
302.133	533.8
302.524	530.2
302.915	528.4
303.307	522.2
303.698	539.2
304.089	536.4
304.48	526.8
304.872	529.4
305.263	526.6
305.655	529
306.046	542.2
306.438	537.8
306.829	526
307.221	546.6
307.613	535
308.005	539.8
308.397	535.4
308.789	548.2
309.181	550.8
309.573	543
309.965	537.8
310.357	528.8
310.749	534
311.142	521.4
311.534	524.8
311.926	534.8
312.319	529.8
312.711	523.4
313.104	537.4
313.497	528.8
313.889	559.4
314.282	542.4
314.675	549.6
315.068	528.8
315.461	526.6
315.854	545.6
316.247	527.2
316.64	521.8
317.033	529.8
317.405	536.8
317.798	528
318.192	529.2
318.585	523.4
318.979	527.6
319.372	525.6
319.766	523.8
320.16	537.8
320.553	545.4
320.947	538.6
321.341	530.4
321.735	527
322.129	522.2
322.523	546.6
322.917	516.8
323.311	543.4
323.705	537.2
324.099	535.8
324.494	535
324.888	535
325.282	529
325.677	536.2
326.071	531.2
326.466	534
326.861	533.4
327.255	541.2
327.65	533.8
328.045	537.8
328.44	531.8
328.835	530.4
329.23	526.6
329.625	548.6
330.02	526.8
330.415	542
330.81	522.2
331.206	532.6
331.601	523.6
331.996	535.6
332.37	542.8
332.766	516.6
333.161	537.8
333.557	526.2
333.953	534.8
334.348	812.6
334.744	529
335.14	526.2
335.536	518.2
335.932	544
336.328	528.2
336.724	535.4
337.12	527.8
337.516	530.4
337.913	528.6
338.309	533.4
338.705	526.6
339.102	536.6
339.498	527.8
339.895	544.2
340.291	524.8
340.688	528
341.085	525.2
341.481	533
341.878	529.2
342.275	537.2
342.672	517.4
343.069	525.4
343.466	517.2
343.842	537.2
344.239	516.2
344.636	527.2
345.033	516
345.431	516.6
345.828	529
346.225	520
346.623	558.6
347.02	530
347.418	532.6
347.816	540.8
348.213	519.6
348.611	531.2
349.009	520.6
349.407	532
349.805	514.8
350.203	515.6
350.601	538.4
350.999	520
351.397	561.2
351.795	529
352.193	536.2
352.57	531.6
352.969	535
353.367	526.8
353.766	521
354.164	530.2
354.563	528.2
354.961	525.2
355.36	530.6
355.759	524.6
356.158	523.6
356.557	523.6
356.956	529.6
357.355	518.8
357.754	530.4
358.153	529.8
358.552	544
358.951	523.8
359.35	535
359.75	529.8
360.149	523.8
360.527	520.4
360.926	514.8
361.326	527
361.726	512.6
362.125	519.4
362.525	533.2
362.925	523.2
363.325	519
363.724	530.4
364.124	519.4
364.524	518.8
364.924	520
365.324	534.2
365.725	510
366.125	529.2
366.525	518
366.904	518.2
367.304	512.6
367.705	529
368.105	525.8
368.506	520.4
368.906	513.8
369.307	527.8
369.708	522
370.108	512.8
370.509	526.4
370.91	514
371.311	519.6
371.712	521.8
372.113	511.4
372.514	512.4
372.894	516
373.295	513.4
373.696	526.2
374.097	521.8
374.499	549.4
374.9	515
375.301	519
375.703	527.6
376.105	516
376.506	517
376.908	522.8
377.309	520
377.711	522.4
378.113	518
378.493	517.4
378.895	522
379.297	531.4
379.699	516
380.102	532.6
380.504	516
380.906	519.2
381.308	537.2
381.71	517.8
382.113	518
382.515	522.6
382.918	524
383.299	518.2
383.701	532.8
384.104	526.2
384.507	513.8
384.909	522.2
385.312	511.4
385.715	502
386.118	520.6
386.521	508.4
386.924	528
387.327	513
387.709	517.4
388.112	506.4
388.515	520.6
388.918	533.2
389.322	529.6
389.725	515.4
390.129	546.8
390.532	522.4
390.936	512.4
391.339	512.4
391.743	524
392.125	512
392.529	532.6
392.933	524.6
393.337	519.8
393.74	517.2
394.144	532.2
394.548	514.6
394.953	525.6
395.357	531.8
395.761	518.4
396.144	518.4
396.548	516.4
396.952	526.4
397.357	519
397.761	526.8
398.166	518.4
398.57	522.8
398.975	515
399.379	520.6
399.763	561
400.168	518.4
400.572	522.2
400.977	517.6
401.382	540.2
401.787	522.4
402.192	538.8
402.597	530.6
403.002	508.4
403.386	535
403.791	537
404.197	513.6
404.602	519.2
405.007	525
405.413	513
405.818	518.4
406.224	512.8
406.608	517
407.014	516
407.42	533.8
407.825	520
408.231	527
408.637	530.4
409.043	532.8
409.449	514.6
409.834	514.2
410.24	526.4
410.646	527.6
411.052	523.2
411.458	525.2
411.865	530
412.271	534.4
412.677	510
413.062	527.4
413.469	511.8
413.875	543.2
414.282	528.4
414.689	524
415.095	525.4
415.502	520.6
415.888	518.6
416.294	507.8
416.701	547.4
417.108	511.2
417.515	527.6
417.923	513.2
418.33	529
418.715	524.6
419.123	517.6
419.53	519
419.937	520.6
420.345	529.8
420.752	521
421.16	523.6
421.546	528.2
421.953	525
422.361	514.2
422.769	521
423.177	512.2
423.585	540.8
423.992	533.4
424.379	532.2
424.787	526.4
425.195	537.4
425.603	524.4
426.011	529.2
426.419	527.2
426.806	525.8
427.214	524
427.623	536.4
428.031	531.2
428.44	531.8
428.848	539
429.235	536.6
429.644	532.2
430.053	533.6
430.461	549.8
430.87	563.8
431.279	559.4
431.666	542.4
432.075	570.4
432.484	583.2
432.893	590.8
433.302	611.6
433.711	653.4
434.099	643.8
434.508	646.4
434.918	665.2
435.327	694.6
435.737	708.2
436.125	726.4
436.534	761
436.944	774.2
437.353	806
437.763	839.2
438.173	831.8
438.561	880.2
438.971	873.2
439.381	906.4
439.791	927.4
440.201	923.8
440.589	979.6
440.999	1001
441.409	1012.2
441.819	1033
442.23	1053.2
442.619	1079.4
443.029	1080.8
443.439	1105.4
443.85	1115.2
444.26	1138.4
444.649	1152
445.06	1140.2
445.471	1160.2
445.881	1181.8
446.292	1206.8
446.682	1218.8
447.092	1203
447.503	1269.2
447.914	1243.2
448.325	1226.6
448.715	1237.4
449.126	1248
449.537	1242.4
449.948	1247.4
450.338	1271.4
450.75	1266.4
451.161	1285.6
451.572	1281.4
451.984	1289
452.374	1271.8
452.786	1298.6
453.197	1308.8
453.609	1302.4
453.999	1301.2
454.411	1286.2
454.823	1317.2
455.235	1312
455.647	1315.8
456.037	1308
456.449	1315.2
456.862	1337
457.274	1327
457.665	1324.2
458.077	1334.4
458.489	1363.8
458.902	1335.4
459.293	1330.2
459.705	1336.2
460.118	1329.6
460.53	1341.8
460.921	1328.8
461.334	1339.2
461.747	1358.8
462.16	1372.4
462.551	1366.6
462.964	1355.4
463.377	1357.2
463.79	1364
464.182	1357
464.595	1346.8
465.008	1352.8
465.421	1366.8
465.813	1361.2
466.226	1365.2
466.64	1354
467.053	1391
467.445	1361.6
467.859	1391.2
468.272	1360.6
468.686	1368.8
469.078	1363.4
469.492	1358.8
469.906	1359.8
470.298	1373.6
470.712	1358
471.126	1374.2
471.54	1333.6
471.933	1344.8
472.347	1352.4
472.761	1338.6
473.175	1340.6
473.568	1356.6
473.982	1334.6
474.397	1345.2
474.79	1337.4
475.204	1342.2
475.619	1344
476.033	1335.8
476.426	1336.6
476.841	1318
477.256	1332
477.649	1304
478.064	1320.2
478.479	1306.8
478.872	1308.6
479.287	1299.4
479.702	1290.2
480.118	1278.4
480.511	1299
480.927	1295.2
481.342	1273.6
481.736	1272.8
482.151	1264.2
482.566	1275.4
482.96	1256.2
483.376	1277
483.792	1261.4
484.186	1267.4
484.602	1256.2
485.017	1259.4
485.412	1227.8
485.827	1230
486.243	1233.8
486.638	1265
487.054	1246.6
487.47	1250
487.865	1223.8
488.281	1206
488.697	1202.4
489.092	1210
489.508	1187
489.925	1209.6
490.32	1175.2
490.736	1192.2
491.153	1164.8
491.548	1172.6
491.964	1176.2
492.381	1148.6
492.776	1158.2
493.193	1140.2
493.61	1143.8
494.006	1150.8
494.422	1132.2
494.84	1133.6
495.235	1136.2
495.652	1126
496.069	1130
496.465	1107.4
496.883	1103
497.3	1113.4
497.696	1096.2
498.113	1084
498.509	1076
498.927	1081.6
499.344	1070.8
499.741	1074.8
500.158	1063.2
500.576	1066.6
500.973	1038.6
501.39	1046
501.787	1033.6
502.205	1040.8
502.623	1031.6
503.02	1011.2
503.438	1013.4
503.856	1016
504.253	1014.8
504.671	1011.8
505.068	993.8
505.486	993
505.905	1008.2
506.302	990.2
506.72	989.6
507.118	963
507.536	972.4
507.955	966.8
508.352	965.8
508.771	958
509.169	951
509.587	938
510.006	935
510.404	920.4
510.823	930.2
511.221	927.2
511.64	920.2
512.038	932
512.457	908
512.877	917
513.275	901.4
513.694	896.2
514.092	887.4
514.512	900.6
514.91	896
515.33	877.8
515.749	877.4
516.148	879.4
516.568	881.6
516.966	876.6
517.386	861.2
517.785	864.2
518.205	860
518.603	850.6
519.024	849.4
519.444	841.4
519.843	849.2
520.263	845
520.662	840
521.082	840
521.481	831.8
521.902	830
522.301	823.6
522.722	822.8
523.121	809.6
523.542	806.8
523.963	804.6
524.362	800.4
524.783	796.6
525.183	792.6
525.604	792.6
526.003	790.6
526.425	779.8
526.824	795.2
527.246	779.4
527.646	782.8
528.067	771.4
528.467	779.8
528.888	772.4
529.289	756.4
529.71	766.2
530.11	762.4
530.532	752.4
530.932	740
531.354	730.2
531.755	763.8
532.176	761.4
532.577	739
532.999	740.2
533.4	733.2
533.822	740.8
534.223	727
534.645	723.6
535.046	720.4
535.468	717.8
535.869	733.8
536.292	707
536.693	752.6
537.115	714
537.516	715.4
537.939	706.8
538.34	720
538.742	713.4
539.165	709.4
539.566	706
539.989	696.2
540.391	697.4
540.814	696.2
541.216	697.6
541.639	694.6
542.041	710.8
542.464	691.8
542.866	698.8
543.268	672.2
543.691	692.2
544.093	686.8
544.517	705.6
544.919	677.4
545.343	686.2
545.745	674
546.147	672.8
546.571	672.4
546.974	671.4
547.398	659.6
547.8	675.8
548.224	659.2
548.627	651.6
549.03	661.8
549.454	654.6
549.857	651.4
550.281	649
550.684	649.6
551.087	662.4
551.512	650.4
551.915	650.8
552.34	645.6
552.743	646.2
553.146	648
553.571	638.6
553.975	658.2
554.399	638
554.803	673.4
555.207	628
555.632	626.2
556.036	645.4
556.461	621.6
556.865	620.6
557.268	623.4
557.694	627.6
558.098	634.6
558.502	624.8
558.927	614.2
559.332	618.8
559.736	616.6
560.162	615.4
560.566	614.4
560.992	615.2
561.396	604.4
561.801	606
562.227	608.2
562.631	600.4
563.036	601
563.462	613.2
563.867	601.6
564.272	591.4
564.698	607.6
565.103	587.4
565.508	606.6
565.935	593
566.34	595
566.745	601.2
567.172	589.4
567.577	608
567.982	605.6
568.409	591.4
568.815	583.6
569.22	590.8
569.626	589.2
570.053	580.4
570.459	581.6
570.865	580.8
571.292	588.2
571.698	587.2
572.104	566.8
572.531	578.6
572.937	591.8
573.343	577.2
573.75	579
574.177	575.2
574.583	580
574.99	570
575.396	590.6
575.824	573.4
576.231	573.6
576.637	570
577.065	594.8
577.472	565.2
577.879	567.8
578.286	583.8
578.714	556.8
579.121	564.4
579.528	568.6
579.935	577.2
580.364	568.8
580.771	556.4
581.178	551.4
581.585	566.2
582.014	561.4
582.421	565.4
582.829	557.6
583.236	566.4
583.644	554.4
584.073	560.2
584.481	565
584.889	555.2
585.296	559.8
585.726	559.4
586.134	550.6
586.542	554.6
586.95	562.4
587.358	547
587.787	547.4
588.196	551.8
588.604	554.4
589.012	556.8
589.421	544.8
589.851	532.4
590.259	548.4
590.668	541
591.076	577.4
591.485	539.2
591.894	550.8
592.324	556.6
592.733	560.6
593.142	536.4
593.551	540.2
593.96	576.8
594.369	538
594.8	534
595.209	541.4
595.618	525.8
596.028	537.6
596.437	538.4
596.847	539
597.256	542.2
597.687	541.4
598.097	536.6
598.507	527.2
598.917	537.4
599.327	545
599.736	541.2
600.146	546.8
600.556	536.4
600.988	542.4
601.398	532.4
601.808	542.2
602.219	521.8
602.629	539.8
603.039	530.8
603.45	555.8
603.86	534.8
604.271	540.2
604.703	527.2
605.114	530.4
605.525	524.2
605.935	533.6
606.346	541.4
606.757	526.4
607.168	519.6
607.579	520
607.99	534.4
608.402	522.8
608.813	526.8
609.224	513.4
609.636	515.6
610.047	510
610.48	521
610.892	532.6
611.303	529
611.715	520.8
612.127	512.6
612.539	527.2
612.95	531.6
613.362	513.4
613.774	516.6
614.186	521.2
614.599	514.6
615.011	526
615.423	526.6
615.835	521.2
616.248	519.8
616.66	518.2
617.073	505
617.485	520
617.898	530.2
618.311	526.8
618.723	517.4
619.136	542.8
619.549	525.2
619.962	540.6
620.375	520.8
620.788	527.2
621.201	521
621.614	525.6
622.028	514.2
622.441	522.4
622.854	529.4
623.268	513.2
623.681	524.8
624.095	520.4
624.509	517.8
624.922	520.6
625.336	508.6
625.728	525
626.142	531.8
626.556	529.4
626.97	520.6
627.384	507
627.799	515.6
628.213	531.4
628.627	512.2
629.041	512.6
629.456	507.4
629.87	514.8
630.285	519.8
630.699	524.2
631.093	510.2
631.507	522
631.922	515.2
632.337	529.6
632.752	503.8
633.167	517.2
633.582	510.6
633.997	511.6
634.412	505.6
634.806	516.2
635.221	507.8
635.637	517.8
636.052	505.2
636.468	516.2
636.883	532
637.299	508.4
637.715	511.8
638.109	508.6
638.525	499.2
638.941	531.4
639.357	520.8
639.773	518
640.189	504.2
640.584	504.2
641	518.4
641.416	502
641.832	505.4
642.249	507.4
642.665	506.4
643.06	511.4
643.477	513.4
643.894	496.6
644.31	513.8
644.727	510.4
645.123	507.4
645.54	509.6
645.957	511.6
646.374	521
646.77	517.4
647.187	534
647.604	503.4
648.021	498.6
648.439	499
648.835	509.6
649.252	506
649.67	497.4
650.088	512.4
650.484	509.8
650.902	512.4
651.32	514
651.738	497.4
652.134	516
652.552	521.2
652.971	514.2
653.389	508.8
653.786	512
654.204	513
654.622	497.4
655.019	506.2
655.438	508.6
655.857	506.6
656.275	512
656.673	505.6
657.091	510.6
657.51	503
657.908	510.8
658.327	511.2
658.746	498
659.144	503.2
659.563	506.8
659.982	501.4
660.38	501.8
660.8	501
661.219	512.4
661.617	513
662.037	500.4
662.457	512.6
662.855	490.8
663.275	524.6
663.695	507.4
664.094	505.6
664.514	502.6
664.934	499.6
665.333	510.4
665.753	497.2
666.152	492.4
666.572	494.2
666.993	517.2
667.392	494.4
667.812	500.2
668.212	504.2
668.632	502.6
669.053	501.6
669.453	492.8
669.874	514.2
670.273	506.2
670.694	496
671.116	506.4
671.515	508.4
671.937	497.8
672.337	502.2
672.758	505
673.158	507.6
673.58	496.8
673.98	510.4
674.402	513.6
674.824	501.4
675.224	498.2
675.646	492.4
676.047	501.6
676.469	502.2
676.869	510.6
677.292	504.8
677.693	494.8
678.115	501.2
678.516	506.4
678.939	508.8
679.34	508.6
679.762	514.8
680.164	512.6
680.586	495.2
680.988	504.6
681.411	518.4
681.812	502.8
682.236	498
682.637	489.8
683.061	492.4
683.462	502.8
683.864	508
684.288	506.4
684.69	493.2
685.114	508.6
685.516	502.8
685.94	494.4
686.342	504.8
686.766	499.2
687.168	501.8
687.571	517.8
687.995	504.8
688.398	496.6
688.822	501.6
689.225	517.8
689.628	513.2
690.052	501
690.456	509
690.88	501.4
691.284	488.6
691.687	508.8
692.112	488
692.515	493.6
692.919	514
693.344	508.2
693.747	497
694.173	499.8
694.577	503.4
694.98	499.4
695.406	505.4
695.81	502.8
696.214	510
696.64	503.2
697.044	507.2
697.448	504.2
697.874	500
698.279	498.6
698.684	490.4
699.11	495.6
699.514	498.4
699.919	502.8
700.324	493.8
700.75	506.2
701.156	502.6
701.561	505.8
701.987	502.4
702.393	497.4
702.798	505.6
703.203	504.8
703.63	501.4
704.036	488.8
704.442	491.8
704.847	491.4
705.274	499.2
705.68	499.4
706.086	495.8
706.492	491
706.92	497.6
707.326	504.8
707.732	495.8
708.139	492.6
708.545	488.6
708.973	498.8
709.38	495.6
709.786	481.8
710.193	507.6
710.6	502.4
711.028	487.4
711.435	496
711.842	494.2
712.249	498.6
712.656	491.6
713.064	508.6
713.492	493
713.9	495.2
714.307	498.4
714.715	497.6
715.123	497.4
715.53	498.4
715.938	496.4
716.367	491.2
716.775	486.6
717.184	499.2
717.592	497.4
718	502.8
718.408	521.8
718.816	525.6
719.225	504
719.633	500.8
720.042	485
720.472	491.6
720.881	507.6
721.29	499.6
721.699	483.8
722.108	497
722.517	496.6
722.926	489.2
723.335	507.2
723.744	499.2
724.154	505.4
724.563	499.2
724.973	494
725.382	495
725.792	502.2
726.202	489.8
726.612	500.4
727.022	493.4
727.432	486.4
779.813	492.4
780.223	526.2
780.634	491.8
781.044	491
781.454	493.8
781.865	509
782.276	479.6
782.686	495.6
783.097	495.4
783.508	497
783.919	503
784.33	504.8
784.741	507
785.152	495.2
785.563	491.6
785.974	496.2
786.386	506
786.776	496.4
787.188	495.8
787.599	492
788.011	503.8
788.423	499.6
788.835	489.2
789.247	494.6
789.659	496.6
790.071	489.6
790.483	531
790.874	487.4
791.286	499.4
791.699	495
792.111	498.2
792.524	504
792.937	499
793.349	496.8
793.741	486.2
794.154	487.6
794.567	504.2
794.98	491.2
795.393	486.8
795.785	505.6
796.198	497.2
796.612	498.6
797.026	498
797.439	477.4
797.831	491
798.245	486.8
798.659	486.8
799.073	492.4
799.487	489.4
799.88	499.4
800.294	490.8
800.708	501.6
801.123	496.2
801.516	512.4
801.93	482.6
802.345	486.2
802.76	500.4
803.153	510.6
803.568	506.6
803.983	488.6
804.377	494
804.792	482.6
805.207	473
805.601	493.4
806.016	513.2
806.432	491
806.826	516.6
807.242	502
807.658	494.6
808.052	485.8
808.468	490.2
808.884	492.6
809.279	498.8
809.695	506.2
810.111	506
810.506	492.2
810.922	503.8
811.339	487.4
811.734	496.8
812.151	488.2
812.546	489.8
812.963	487
813.38	486.2
813.776	484
814.193	501.6
814.589	481.6
815.006	489.4
815.402	489
815.82	491.2
816.237	495.6
816.633	490.2
817.051	480.4
817.448	492.6
817.866	489.6
818.262	509
818.68	483.8
819.077	486.8
819.495	496.6
819.892	530.2
820.311	490.4
820.708	489.4
821.127	493.2
821.524	499
821.943	498.4
822.34	510.6
822.759	492.4
823.157	490
823.576	505.4
823.974	502.2
824.393	586
824.791	496.2
825.189	484
825.609	492.4
826.007	492.4
826.427	487.8
826.826	489.4
827.246	492.6
827.644	490.2
828.043	496.4
828.463	486
828.862	506.4
829.261	494.6
829.682	488
830.081	498.8
830.502	493.8
830.901	499.8
831.301	489.8
831.722	484.6
832.121	488.2
832.521	490.6
832.943	491.4
833.342	490
833.742	484
834.164	497.8
834.564	482.4
834.965	498.8
835.386	494.8
835.787	493.4
836.188	491.6
836.588	493.2
837.01	491.8
837.411	486.4
837.812	500
838.213	493.2
838.636	495.6
839.037	554.6
839.438	495.6
839.84	493.4
840.263	495.2
840.664	497.2
841.066	490.2
841.468	496.6
841.891	487
842.293	506.6
842.695	492.6
843.098	493.2
843.5	489.6
843.902	496.8
844.326	494.2
844.729	493.8
845.131	504
845.534	493.6
845.937	504.8
846.34	503.2
846.764	480.8
847.167	493.4
847.571	489.6
847.974	489.2
848.377	482.8
848.781	534.4
849.184	506.6
849.588	484.8
849.992	478.2
850.396	489.8
850.821	509.8
851.225	489.6
851.63	492.6
852.034	498.4
852.438	491
852.843	512.6
853.247	489.6
853.652	496
854.057	507.6
854.462	489.4
854.867	494.8
855.272	508.8
855.677	492.4
856.082	486.4
856.487	488.4
856.893	499
857.298	488.8
857.704	490.8
858.11	493.4
858.516	505.2
858.922	490.2
859.328	497.4
859.734	496.6
860.14	501.6
860.525	491.6
860.931	478.6
861.338	484.4
861.745	490.6
862.151	497.2
862.558	498.2
862.965	485.8
863.372	493.8
863.779	489.6
864.186	516.2
864.572	488.6
864.98	507.2
865.387	515
865.795	491
866.203	491.8
866.61	483.8
867.018	495.8
867.405	490.2
867.813	486.4
868.221	486.2
868.63	487.8
869.038	501.6
869.425	523.6
869.834	491
870.243	483.8
870.652	486
871.039	483.4
871.448	491.8
871.857	498
872.266	491.4
872.654	494.8
873.064	482.6
873.473	491
873.883	477.6
874.271	486.4
874.681	504
875.091	477.6
875.48	496.8
875.89	503.2
876.3	487.4
876.689	484.6
877.1	487.4
877.51	488.4
877.9	510
878.31	489.2
878.721	520.2
879.111	486.2
879.522	487.2
879.933	489.2
880.323	481.2
880.734	486.8
881.125	490.4
881.536	487.4
881.948	489.4
882.338	488.2
882.75	492.2
883.141	485.4
883.553	492
883.944	503.4
884.356	495.4
884.769	487.6
885.16	490.2
885.573	488.6
885.964	491.6
886.377	490.6
886.768	478.2
887.181	489.4
887.573	481
887.987	493
888.378	495.4
888.792	488.4
889.184	534
889.598	485
889.99	488.6
890.383	479.2
890.797	486
891.19	501.4
891.604	491
891.997	486.4
892.411	474.6
892.805	479.8
893.198	482
893.613	479.6
894.006	492.4
894.421	488.6
894.815	481
895.209	489.2
895.624	526.6
896.018	504
896.412	487
896.828	483.6
897.222	492.2
897.617	494
898.033	506.8
898.427	495.4
898.822	489.4
899.239	484.4
899.634	482.6
900.029	500.2
900.424	483.8
900.841	469.2
901.236	493.2
901.632	488.8
902.027	534.8
902.445	488.8
902.841	482.6
903.237	485.8
903.633	493.2
904.05	489.4
904.447	490.4
904.843	489.6
905.24	488
905.636	479.4
906.033	486.2
906.451	486.6
906.848	481.6
907.246	485.8
907.643	483.2
908.04	487.8
908.438	498.2
908.835	492.6
909.254	481.2
909.652	491.4
910.05	487
910.448	479
910.846	486.4
911.244	477.8
911.643	479.8
912.041	480
912.44	502.8
912.839	482.6
913.237	485.4
913.636	484
914.035	495.6
914.434	485
914.834	496
915.233	498.8
915.633	483.4
916.032	484.2
916.432	476.2
916.832	500
917.232	480.2
917.632	478.4
918.032	496.4
918.432	486.8
918.833	485.6
919.233	491.2
919.634	479.8
920.035	497
920.436	483.2
920.837	493.8
921.238	489.4
921.639	487.4
922.019	494
922.42	492.4
922.822	485
923.224	485.8
923.625	488
924.027	496.8
924.429	504.6
924.81	480.6
925.212	486.2
925.615	494.2
926.017	488.2
926.42	499.8
926.801	488.2
927.204	489.4
927.607	494.6
928.01	494.2
928.413	486.8
928.795	471
929.199	482.8
929.602	484.2
930.006	481
930.388	482.6
930.792	484.6
931.196	490
931.579	519
931.983	483.4
932.388	519
932.771	482
933.176	471.4
933.58	485.4
933.964	495.4
934.369	478
934.774	498
935.158	485.6
935.563	488.8
935.947	491.2
936.353	495
936.759	488.2
937.143	495.4
937.549	487
937.934	493.6
938.34	496.4
938.746	489.8
939.131	489.2
939.538	487.4
939.923	485.6
940.33	483.6
940.716	490.6
941.123	493.8
941.508	495
941.916	490
942.302	488.4
942.709	482.4
943.096	476.2
943.503	496
943.89	489.6
944.298	487
944.685	510.4
945.072	484
945.48	494.4
945.867	478.4
946.276	486.2
946.663	505.6
947.051	492.6
947.46	495
947.848	486
948.257	496.4
948.645	490
949.033	483.4
949.443	478.4
949.831	523
950.22	485.2
950.63	492.6
951.018	504.6
951.407	496.2
951.796	478.8
952.207	490.2
952.596	493.2
952.985	477
953.375	516.8
953.786	490.8
954.176	483.2
954.566	493.2
954.956	474.6
955.367	488
955.758	506.8
956.148	490.6
956.539	494.4
956.929	480.4
957.341	480.4
957.732	485.4
958.123	490.2
958.515	480
958.906	490.4
959.297	482.8
959.689	476.6
960.102	481.6
960.494	481.4
960.886	484.2
961.278	477.6
961.67	499.6
962.062	516
962.455	484.4
962.847	483.2
963.24	487.4
963.633	486.2
964.026	481.8
964.419	480
964.812	493.2
965.206	484.2
965.599	489.4
965.993	482
966.386	485.4
966.78	498.6
967.174	497.6
967.569	484.8
967.963	486
968.357	485.4
968.752	480.4
969.146	479.8
969.541	476.4
969.936	486
970.331	490.8
970.705	485.8
971.1	483
971.496	487
971.892	488.6
972.287	482.2
972.683	484.8
973.079	480.8
973.454	494.8
973.85	488
974.247	489.4
974.643	504.2
975.04	488.6
975.415	485.2
975.812	481.4
976.209	484.8
976.607	480.8
976.982	493.2
977.38	498.2
977.778	482.4
978.175	484.2
978.552	479.4
978.95	492.6
979.348	484
979.725	523.8
980.123	483.4
980.522	484
980.899	480.4
981.298	483
981.697	482.2
982.075	489.6
982.474	477.8
982.852	491.2
983.251	490.6
983.651	482.4
984.029	485
984.429	487.6
984.808	481
985.208	482
985.609	485.2
985.987	479.6
986.388	479.2
986.768	482.4
987.168	480
987.548	489.6
987.949	491.4
988.329	487.8
988.731	474.4
989.111	485.8
989.491	485.8
989.893	483.2
990.273	487.6
990.676	478.2
991.057	482.2
991.459	484.8
991.84	479
992.221	476.8
992.624	496.8
993.006	481.6
993.388	489.4
993.791	491.8
994.173	483.8
994.576	507.6
994.959	474.4
995.341	475.4
995.724	480.2
996.128	481
996.511	484.2
996.894	481.8
997.298	478.6
997.681	482.6
998.065	478.2
998.448	481.2
998.854	488.4
999.237	475
999.621	487
1000.01	497.6
1000.39	473.6
1000.8	471.4
1001.18	493.2
1001.56	488
1001.95	489.4
1002.33	481.6
1002.72	481.8
1003.13	480.6
1003.51	477.4
1003.9	481.2
1004.28	493.8
1004.67	479.8
1005.06	480.8
1005.44	510.6
1005.83	471
1006.21	484.4
1006.6	475.8
1006.99	495.6
1007.37	487
1007.76	483.4
1060.12	483
1060.51	477.8
1060.89	487.6
1061.28	497
1061.67	487.6
1062.06	492.6
1062.45	481.2
1062.83	479.8
1063.22	494.4
1063.61	509.8
1064	480
1064.39	480.4
1064.78	475.8
1065.14	487
1065.53	482.4
1065.92	481.2
1066.31	475.2
1066.7	484.8
1067.09	491.8
1067.46	485
1067.85	483.4
1068.24	480.8
1068.63	487
1069.02	484.8
1069.39	491
1069.78	478.2
1070.17	476.8
1070.57	483.6
1070.93	489
1071.33	480.8
1071.72	487.8
1072.11	479.4
1072.48	479.6
1072.87	483.6
1073.26	482.4
1073.64	478.8
1074.03	476.6
1074.4	482.2
1074.79	475.6
1075.19	483.4
1075.56	490.2
1075.95	481.2
1076.34	486
1076.72	482.2
1077.11	491.8
1077.48	491.4
1077.88	485
1078.25	485.4
1078.64	491.6
1079.02	486.2
1079.41	484
1079.78	484.8
1080.18	481
1080.55	536.6
1080.95	482.6
1081.32	479.2
1081.72	487.2
1082.09	485
1082.49	479
1082.86	490.6
1083.24	474.6
1083.63	473.6
1084.01	481.2
1084.38	491.6
1084.78	482.4
1085.16	481.4
1085.55	490.8
1085.93	488.2
1086.31	477.6
1086.7	517.4
1087.08	482
1087.46	488.2
1087.83	476.8
1088.23	496.4
1088.61	494
1088.99	486.6
1089.36	485.6
1089.76	483.6
1090.14	486.2
1090.52	488
1090.9	485.8
1091.27	500.2
1091.67	501.2
1092.05	483.4
1092.43	484.2
1092.81	488.2
1093.19	492.8
1093.57	484.2
1093.95	482.8
1094.35	488.2
1094.73	484
1095.11	474.6
1095.49	478.4
1095.87	480
1096.25	491.6
1096.63	483
1097.01	486.2
1097.39	482
1097.77	481.2
1098.15	481.2
1098.53	476
1098.91	481.8
1099.29	477.6
1099.68	488.2
1100.06	485
1100.44	482.2
1100.82	482.4
1101.18	492
1101.56	476.2
1101.95	475.4
1102.33	475
1102.71	479.6
1103.1	468
1103.48	467.4
1103.86	475.8
1104.22	483
1104.61	481
1104.99	472.4
1105.38	476
1105.76	484.2
1106.12	482.4
1106.51	512.2
1106.89	485
1107.26	478.6
1107.64	489.2
1108.03	479.4
1108.41	472.2
1108.78	480.4
1109.16	483.8
1109.55	481
1109.91	473.2
1110.3	471.4
1110.69	490
1111.05	479.4
1111.44	480.4
1111.8	479.6
1112.19	482.2
1112.58	481.8
1112.94	477.2
1113.33	485.8
1113.7	473.6
1114.09	483.4
1114.45	481.2
1114.84	482
1115.21	484.6
1115.6	491.4
1115.96	486
1116.35	485.4
1116.72	473
1117.11	487.6
1117.48	475.8
1117.85	482.4
1118.24	488.4
1118.6	483.2
1118.99	470.4
1119.36	494.4
1119.73	484.2
1120.12	484
1120.49	466.8
1120.86	489.8
1121.25	480.6
1121.62	471
1121.99	479.6
1122.38	490.6
1122.76	486
1123.13	475
1123.5	482.8
1123.89	489.2
1124.26	476.4
1124.63	484.8
1125	484.6
1125.4	475.8
1125.77	479.4
1126.14	467.6
1126.51	479.4
1126.88	484.2
1127.26	477.6
1127.63	472.4
1128.02	489.4
1128.4	477
1128.77	481.6
1129.14	477.8
1129.52	479.8
1129.89	482.6
1130.26	475.8
1130.64	473.4
1131.01	480.4
