#lambda/nm	C1
208.295	467.2
208.67	439.8
209.045	396.2
209.419	399.4
209.794	532.2
210.169	517
210.544	619.4
210.919	532.6
211.295	519.2
211.67	534.6
212.045	521.2
212.421	533.6
212.796	558
213.172	529.6
213.547	522.6
213.923	522.2
214.299	527
214.675	532.4
215.051	531.2
215.427	539.2
215.803	553.2
216.179	541
216.555	529.6
216.932	533.6
217.308	530.8
217.684	527.2
218.061	533.6
218.438	532.8
218.814	523.4
219.191	531.6
219.568	522.4
219.945	527.8
220.322	537
220.699	529.8
221.076	539.2
221.453	532.6
221.83	521
222.208	526.8
222.585	523.2
222.962	531.8
223.34	528.6
223.717	524.2
224.095	521.8
224.473	526.6
224.851	522.4
225.229	514.8
225.607	543
225.985	523.8
226.363	530.6
226.741	526.4
227.119	521.2
227.497	532
227.876	522
228.254	533.6
228.633	529.4
229.011	533.8
229.39	536.2
229.769	531.8
230.148	525.8
230.527	542.6
230.905	528.8
231.284	531
231.664	529.4
232.043	541.4
232.422	535.6
232.801	514.8
233.181	530.2
233.56	528
233.94	524.6
234.319	513.4
234.699	526.8
235.079	560
235.458	559.8
235.838	539.2
236.218	518.2
236.598	528
236.978	524
237.358	525.4
237.738	521.6
238.119	534
238.499	522.4
238.88	525.2
239.26	543.4
239.641	517.6
240.021	523.2
240.402	533.2
240.783	526.8
241.163	531.8
241.544	530.6
241.925	527
242.306	540.4
242.687	526.4
243.069	533.6
243.45	539.8
243.831	523.8
244.212	520.8
244.594	563
244.975	537.4
245.357	524.4
245.739	522.4
246.12	520.2
246.502	531.4
246.884	524.8
247.266	521
247.648	531.6
248.03	547
248.412	534.8
248.794	527.6
249.176	519.4
249.559	536.4
249.941	525.4
250.323	522.4
250.706	524.6
251.089	520.2
251.471	532.4
251.854	526
252.237	524.2
252.62	529.2
253.002	531.8
253.385	530.2
253.769	542.4
254.152	528
254.535	528.4
254.918	523
255.301	531.8
255.685	532.2
256.068	524.4
256.452	542
256.835	525.6
257.219	532.4
257.603	544.4
257.986	526.6
258.37	529
258.754	520.6
259.138	537
259.522	544.4
259.906	524.8
260.29	532.4
260.675	526.6
261.059	527.8
261.443	519.4
261.828	530.8
262.212	526
262.597	521.2
262.981	518.8
263.366	531.2
263.751	525.2
264.136	516.8
264.521	527
264.906	513
265.291	531.2
265.676	524.2
266.061	529
266.446	536
266.831	535.2
267.217	542.6
267.602	528.2
267.987	534.6
268.373	524.8
268.759	538.6
269.144	529
269.53	531.8
269.916	527.8
270.302	523.8
270.688	531.2
271.074	526.4
271.46	535.8
271.846	559.2
272.232	523.8
272.618	530.4
273.004	519.8
273.391	542.6
273.777	540.6
274.164	534.6
274.55	537.8
274.937	530.8
275.324	529.6
275.71	533.8
276.097	532
276.484	523.2
276.871	526.6
277.258	530.6
277.645	521.8
278.032	520.8
278.419	526.2
278.807	529.2
279.194	517
279.581	522.6
279.969	534.2
280.356	525.2
280.744	532.2
281.131	539.2
281.519	537
281.907	519.2
282.295	525.8
282.682	540
283.07	524.4
283.458	538.4
283.846	535.8
284.235	534.6
284.623	539.6
285.011	511.8
285.399	532.2
285.788	520.8
286.176	518.2
286.565	543
286.953	525
287.342	528.2
287.731	521.4
288.119	528.2
288.508	526.2
288.897	537
289.286	510.4
289.675	538
290.064	537.2
290.453	523
290.821	533.8
291.21	538.4
291.599	527.8
291.989	529.2
292.378	530.4
292.768	548.8
293.157	532.6
293.547	538.6
293.936	532
294.326	530
294.716	533
295.106	528.4
295.496	532.6
295.886	539
296.276	530
296.666	525.2
297.056	523.2
297.446	517.4
297.836	537.4
298.227	520
298.617	532.2
299.008	550.6
299.398	531
299.789	522
300.179	523
300.57	535
300.961	529.2
301.352	524.8
301.742	529.4
302.133	530
302.524	528.2
302.915	529.6
303.307	520.8
303.698	533.8
304.089	533.8
304.48	526
304.872	530
305.263	527.4
305.655	528.4
306.046	531.4
306.438	534
306.829	526.4
307.221	543.8
307.613	535
308.005	535.2
308.397	543.2
308.789	540
309.181	549.2
309.573	543.2
309.965	547.8
310.357	525.4
310.749	536.4
311.142	532.2
311.534	528.8
311.926	536.8
312.319	529.8
312.711	524.8
313.104	539
313.497	528.4
313.889	555.6
314.282	540.6
314.675	548.2
315.068	531.8
315.461	542.6
315.854	551
316.247	540.8
316.64	527.6
317.033	527.8
317.405	530.6
317.798	528.8
318.192	535.6
318.585	528
318.979	535.8
319.372	528.2
319.766	526.8
320.16	526.4
320.553	541.6
320.947	543.6
321.341	523.8
321.735	531.6
322.129	517.8
322.523	546.4
322.917	520.2
323.311	538.6
323.705	527.4
324.099	530.6
324.494	533.2
324.888	535
325.282	523.4
325.677	532.8
326.071	533.4
326.466	539.6
326.861	530.6
327.255	533.8
327.65	539
328.045	536.8
328.44	530.2
328.835	531.2
329.23	522.8
329.625	550
330.02	522.6
330.415	545.8
330.81	527.4
331.206	524.2
331.601	529.4
331.996	538.4
332.37	541.6
332.766	522.8
333.161	540.8
333.557	525.8
333.953	531.8
334.348	811.4
334.744	536
335.14	533.2
335.536	531
335.932	534.4
336.328	529
336.724	536.6
337.12	518
337.516	528.8
337.913	529.2
338.309	537.2
338.705	534
339.102	537.6
339.498	527.2
339.895	539.2
340.291	520.6
340.688	534.4
341.085	516.8
341.481	524
341.878	524.4
342.275	540.8
342.672	516.2
343.069	523
343.466	514.2
343.842	539
344.239	520.6
344.636	525.4
345.033	515.4
345.431	518.4
345.828	527.6
346.225	528.2
346.623	551.6
347.02	525.6
347.418	530.2
347.816	536
348.213	518.8
348.611	530.4
349.009	525.2
349.407	536
349.805	511.6
350.203	515.6
350.601	543.6
350.999	524.4
351.397	569.6
351.795	523.6
352.193	543.2
352.57	537.6
352.969	534.8
353.367	519
353.766	524
354.164	523.4
354.563	534.6
354.961	525.8
355.36	519.4
355.759	521.8
356.158	516
356.557	518
356.956	512.6
357.355	508.8
357.754	526.6
358.153	529.8
358.552	538.2
358.951	518.8
359.35	528.2
359.75	517.8
360.149	517
360.527	504.8
360.926	512.4
361.326	525.4
361.726	523
362.125	516
362.525	527.4
362.925	522.6
363.325	526
363.724	524
364.124	521.6
364.524	521
364.924	518.2
365.324	527.4
365.725	509.4
366.125	528.4
366.525	526.4
366.904	515.6
367.304	508
367.705	535.6
368.105	531
368.506	521.6
368.906	528.8
369.307	522
369.708	527.2
370.108	515.8
370.509	524.2
370.91	518.6
371.311	525.6
371.712	518.2
372.113	518.8
372.514	510.2
372.894	518.8
373.295	518.4
373.696	526.8
374.097	531.4
374.499	544
374.9	518
375.301	511.4
375.703	516.2
376.105	508.6
376.506	519
376.908	521
377.309	521.2
377.711	523.8
378.113	508.8
378.493	521.6
378.895	513.6
379.297	527.8
379.699	507.4
380.102	524
380.504	511.8
380.906	517
381.308	532.4
381.71	517.6
382.113	523.6
382.515	517.2
382.918	523.4
383.299	520.4
383.701	522.2
384.104	524.2
384.507	499.6
384.909	521.8
385.312	515.2
385.715	522.4
386.118	510
386.521	509.2
386.924	528.6
387.327	515.8
387.709	511.4
388.112	499.6
388.515	513.2
388.918	521.2
389.322	523
389.725	516.4
390.129	537.4
390.532	525.2
390.936	521.4
391.339	514
391.743	525.2
392.125	518.2
392.529	537.6
392.933	533.2
393.337	515.2
393.74	521.2
394.144	523.6
394.548	506
394.953	512.4
395.357	524.2
395.761	510.4
396.144	520.6
396.548	516.8
396.952	512.8
397.357	521.8
397.761	519.8
398.166	515.8
398.57	523.4
398.975	510.2
399.379	522.4
399.763	553.8
400.168	518.4
400.572	518.2
400.977	510.6
401.382	531
401.787	521.2
402.192	533
402.597	529.4
403.002	512.8
403.386	535.8
403.791	536
404.197	520.4
404.602	526.2
405.007	522.2
405.413	517.8
405.818	529.6
406.224	521.6
406.608	512
407.014	516.2
407.42	531.8
407.825	519.4
408.231	535.8
408.637	521.2
409.043	533.6
409.449	508.6
409.834	516.2
410.24	519.2
410.646	522.8
411.052	529.2
411.458	524.4
411.865	532.6
412.271	528.8
412.677	520.4
413.062	526
413.469	517.2
413.875	546
414.282	532.6
414.689	525.4
415.095	525.8
415.502	516.8
415.888	523.6
416.294	505.8
416.701	557.8
417.108	520.8
417.515	526.6
417.923	527.6
418.33	529.8
418.715	528.2
419.123	513.2
419.53	524
419.937	524.8
420.345	521
420.752	517.6
421.16	520.8
421.546	517
421.953	522.4
422.361	511.2
422.769	525.2
423.177	517.8
423.585	540.4
423.992	538.4
424.379	533.4
424.787	535.4
425.195	530.2
425.603	516.4
426.011	530.4
426.419	533.2
426.806	521.8
427.214	524.8
427.623	535.6
428.031	536.2
428.44	526.4
428.848	526.8
429.235	535.8
429.644	526.6
430.053	527.6
430.461	537.4
430.87	543.6
431.279	537.8
431.666	519.4
432.075	522.4
432.484	527
432.893	523
433.302	528
433.711	563.6
434.099	536.4
434.508	532.6
434.918	524.4
435.327	545.6
435.737	544.8
436.125	543
436.534	548.2
436.944	551.2
437.353	561.6
437.763	582.4
438.173	563.4
438.561	580.2
438.971	562.2
439.381	574.6
439.791	584.4
440.201	572.4
440.589	598.2
440.999	602.2
441.409	611.4
441.819	611.8
442.23	629
442.619	628.8
443.029	641.2
443.439	641.2
443.85	647.6
444.26	657.8
444.649	651
445.06	664.6
445.471	665.8
445.881	664.8
446.292	685.8
446.682	685.8
447.092	673
447.503	715.6
447.914	691
448.325	688.6
448.715	700.4
449.126	684.4
449.537	694.2
449.948	702.8
450.338	713.8
450.75	718
451.161	702.4
451.572	710.4
451.984	715.2
452.374	714.6
452.786	715.6
453.197	725.6
453.609	725.2
453.999	711.4
454.411	719.4
454.823	738
455.235	729.2
455.647	727.4
456.037	734.8
456.449	720.4
456.862	738.6
457.274	737.6
457.665	741
458.077	747.2
458.489	772.4
458.902	744.6
459.293	752.8
459.705	752.4
460.118	756.2
460.53	759.8
460.921	759.2
461.334	765
461.747	763.6
462.16	784.4
462.551	771.4
462.964	783.2
463.377	769
463.79	768.6
464.182	782.4
464.595	779.4
465.008	783.2
465.421	788.6
465.813	773.8
466.226	792.2
466.64	788.2
467.053	818.2
467.445	809.4
467.859	797.4
468.272	807.2
468.686	813
469.078	805.6
469.492	784
469.906	804.6
470.298	822
470.712	798.2
471.126	840.2
471.54	791.4
471.933	805.8
472.347	805.6
472.761	809.4
473.175	816
473.568	811.6
473.982	803.8
474.397	813.8
474.79	810.2
475.204	814.4
475.619	813.2
476.033	796.4
476.426	804.8
476.841	807.4
477.256	826.8
477.649	799.4
478.064	795.6
478.479	806
478.872	807.4
479.287	798.2
479.702	796.2
480.118	798.6
480.511	799.8
480.927	800.4
481.342	792.8
481.736	798.4
482.151	799
482.566	816
482.96	793.8
483.376	810.8
483.792	791
484.186	806.4
484.602	802
485.017	800.6
485.412	802
485.827	799
486.243	793.4
486.638	809.4
487.054	792
487.47	809.6
487.865	791.6
488.281	789.6
488.697	783.2
489.092	791
489.508	779.8
489.925	791.8
490.32	771
490.736	789.2
491.153	772.6
491.548	778.6
491.964	787
492.381	772
492.776	779.4
493.193	767.8
493.61	773.2
494.006	781.4
494.422	775.6
494.84	754.4
495.235	769.2
495.652	767.8
496.069	762.4
496.465	756.2
496.883	764.8
497.3	780
497.696	755.4
498.113	756.2
498.509	735
498.927	743
499.344	746.4
499.741	735
500.158	749
500.576	749.2
500.973	751.4
501.39	734.4
501.787	728.2
502.205	740
502.623	732
503.02	720
503.438	725.4
503.856	726.4
504.253	725
504.671	729.6
505.068	711.8
505.486	712.8
505.905	730.6
506.302	726.2
506.72	724
507.118	714.6
507.536	700
507.955	700.4
508.352	709
508.771	715.6
509.169	705.2
509.587	700
510.006	698.4
510.404	692.2
510.823	696.6
511.221	691.2
511.64	686.8
512.038	704
512.457	686.4
512.877	682.6
513.275	684.2
513.694	689.8
514.092	679.4
514.512	685
514.91	686.2
515.33	689.2
515.749	682.8
516.148	674.6
516.568	676
516.966	680.8
517.386	671.4
517.785	668.4
518.205	654.4
518.603	655.2
519.024	651
519.444	663
519.843	669.8
520.263	666.8
520.662	648.6
521.082	645.6
521.481	651
521.902	657.2
522.301	648.2
522.722	657
523.121	645.4
523.542	646.2
523.963	640.8
524.362	645.4
524.783	637.2
525.183	651.4
525.604	639.8
526.003	636.6
526.425	632.6
526.824	642.2
527.246	636.8
527.646	639.2
528.067	635.6
528.467	621.2
528.888	637.8
529.289	620.6
529.71	624.2
530.11	618.6
530.532	614.4
530.932	609.8
531.354	613
531.755	645.6
532.176	621.4
532.577	615.6
532.999	622.4
533.4	613.4
533.822	619.8
534.223	606.8
534.645	602.4
535.046	599.4
535.468	605
535.869	618.2
536.292	603
536.693	633
537.115	611.2
537.516	605
537.939	603.4
538.34	618.6
538.742	620.2
539.165	602.2
539.566	597.6
539.989	592.8
540.391	598
540.814	605.8
541.216	598.8
541.639	593.8
542.041	604.4
542.464	591.4
542.866	592.8
543.268	582.8
543.691	596.8
544.093	593.4
544.517	614
544.919	583.2
545.343	606.6
545.745	581.4
546.147	592.6
546.571	594
546.974	585.8
547.398	589.2
547.8	590.8
548.224	586.2
548.627	575
549.03	591.6
549.454	577.2
549.857	578.8
550.281	574.8
550.684	574.2
551.087	580.8
551.512	578
551.915	581.6
552.34	575.8
552.743	569.6
553.146	570.8
553.571	572.2
553.975	585.2
554.399	554.8
554.803	605.6
555.207	562.4
555.632	562
556.036	568
556.461	563.2
556.865	561.6
557.268	563.8
557.694	563.8
558.098	573
558.502	568.2
558.927	557.2
559.332	565.8
559.736	561
560.162	564.2
560.566	554.4
560.992	559.4
561.396	561.8
561.801	558
562.227	562.6
562.631	560.4
563.036	551.8
563.462	563.6
563.867	561.2
564.272	546
564.698	560.8
565.103	549.4
565.508	561
565.935	548.4
566.34	555.6
566.745	555.4
567.172	548.2
567.577	566.6
567.982	557.4
568.409	553.2
568.815	547.4
569.22	553.2
569.626	553
570.053	532.2
570.459	555.6
570.865	552.8
571.292	541.2
571.698	550.2
572.104	536.6
572.531	539.6
572.937	549
573.343	540.8
573.75	538.2
574.177	539.8
574.583	543.2
574.99	545
575.396	544.6
575.824	536
576.231	533.2
576.637	540
577.065	559.2
577.472	534
577.879	533.2
578.286	548.6
578.714	530.6
579.121	537.2
579.528	538.6
579.935	548.6
580.364	539.6
580.771	528.4
581.178	532.6
581.585	544.4
582.014	536.2
582.421	524
582.829	525.8
583.236	539.8
583.644	529
584.073	537
584.481	533.4
584.889	526.2
585.296	534.2
585.726	530
586.134	520
586.542	528
586.95	544
587.358	524.4
587.787	531.8
588.196	517.6
588.604	524.2
589.012	526.4
589.421	520.4
589.851	528.6
590.259	533.2
590.668	519.2
591.076	552.6
591.485	522.4
591.894	523.4
592.324	542
592.733	531.6
593.142	516
593.551	522.4
593.96	545.2
594.369	520.2
594.8	515
595.209	523.6
595.618	511
596.028	517.6
596.437	512.4
596.847	523.6
597.256	524
597.687	529.4
598.097	526.6
598.507	505.4
598.917	525.6
599.327	521.8
599.736	520
600.146	531.4
600.556	524.8
600.988	523.2
601.398	514.6
601.808	525.8
602.219	513.2
602.629	517.2
603.039	520
603.45	540.4
603.86	521.8
604.271	524.4
604.703	519.8
605.114	517.2
605.525	517.2
605.935	523.6
606.346	537.4
606.757	519.6
607.168	520.8
607.579	512.4
607.99	523.2
608.402	517
608.813	519.8
609.224	510.8
609.636	508.8
610.047	512.8
610.48	524.2
610.892	520.6
611.303	525
611.715	519.4
612.127	509
612.539	518.4
612.95	521
613.362	513.8
613.774	516.8
614.186	517.8
614.599	517.4
615.011	519.8
615.423	520.6
615.835	512.2
616.248	516.4
616.66	521.2
617.073	514.8
617.485	519.4
617.898	531.2
618.311	520.4
618.723	520.8
619.136	547.2
619.549	530.8
619.962	535.2
620.375	517.6
620.788	526.6
621.201	517.4
621.614	526.8
622.028	526
622.441	533.4
622.854	525.8
623.268	517.2
623.681	522.8
624.095	526.4
624.509	533.8
624.922	531.8
625.336	517.2
625.728	527
626.142	537.2
626.556	536.2
626.97	530.4
627.384	519.4
627.799	524.8
628.213	541.4
628.627	521.2
629.041	520.2
629.456	522.6
629.87	526.6
630.285	530.6
630.699	533.4
631.093	519
631.507	527.2
631.922	527.4
632.337	533.8
632.752	510.8
633.167	522
633.582	525.6
633.997	518.6
634.412	515.8
634.806	523.8
635.221	518.4
635.637	532
636.052	514.6
636.468	530.4
636.883	533
637.299	511.8
637.715	508.8
638.109	521.2
638.525	510.6
638.941	527.8
639.357	515.4
639.773	527.8
640.189	512.8
640.584	520.4
641	522.2
641.416	507
641.832	517.6
642.249	510.6
642.665	518
643.06	525.6
643.477	530.8
643.894	501.8
644.31	520.2
644.727	507.8
645.123	510.2
645.54	508.2
645.957	511.8
646.374	525.4
646.77	514.4
647.187	531.8
647.604	513.6
648.021	508.8
648.439	501.4
648.835	508.4
649.252	513.2
649.67	512.2
650.088	519.2
650.484	514.8
650.902	516.4
651.32	516.4
651.738	510.8
652.134	509.8
652.552	520.8
652.971	520.2
653.389	511.4
653.786	516.4
654.204	515.4
654.622	497.2
655.019	509.8
655.438	514.2
655.857	508.8
656.275	513.4
656.673	511.4
657.091	517
657.51	505.2
657.908	511.4
658.327	518.2
658.746	500
659.144	501.6
659.563	516.2
659.982	509
660.38	497.2
660.8	514.8
661.219	515.4
661.617	513.2
662.037	510
662.457	513.2
662.855	502
663.275	532
663.695	499.6
664.094	503.2
664.514	504.6
664.934	504.8
665.333	510
665.753	502
666.152	500.6
666.572	500.8
666.993	519.4
667.392	499
667.812	504.6
668.212	504
668.632	509
669.053	502.2
669.453	507
669.874	500
670.273	506
670.694	502.2
671.116	513.6
671.515	510.2
671.937	498.6
672.337	497.8
672.758	502.2
673.158	509.8
673.58	498
673.98	505.2
674.402	513
674.824	502
675.224	495.4
675.646	500
676.047	495.4
676.469	497.4
676.869	507.8
677.292	499.4
677.693	501.4
678.115	498.4
678.516	508
678.939	507.6
679.34	502
679.762	511
680.164	500.2
680.586	499.2
680.988	506.4
681.411	523.2
681.812	502.8
682.236	496.6
682.637	491.2
683.061	495
683.462	510.6
683.864	501.8
684.288	511.6
684.69	493.4
685.114	511.4
685.516	510.2
685.94	494.8
686.342	508.2
686.766	498
687.168	494
687.571	506.6
687.995	499.2
688.398	495.4
688.822	499.4
689.225	514.6
689.628	518.6
690.052	500.6
690.456	509
690.88	499.8
691.284	499
691.687	503.4
692.112	496.8
692.515	493.4
692.919	500.6
693.344	505
693.747	496.4
694.173	504.4
694.577	511.4
694.98	511.4
695.406	500.8
695.81	507.6
696.214	502.2
696.64	502.8
697.044	501.4
697.448	510.8
697.874	491.6
698.279	500.8
698.684	485.6
699.11	493.4
699.514	496.8
699.919	496.2
700.324	502.8
700.75	509.8
701.156	499.2
701.561	510.8
701.987	499.2
702.393	508
702.798	504.8
703.203	497
703.63	498.2
704.036	494.2
704.442	497.6
704.847	486.2
705.274	500.2
705.68	502.4
706.086	503.6
706.492	489
706.92	497
707.326	507.8
707.732	503
708.139	492.6
708.545	495.8
708.973	499.2
709.38	503
709.786	492.4
710.193	511.2
710.6	491.8
711.028	501.8
711.435	498.4
711.842	496.2
712.249	492.2
712.656	498.6
713.064	502.2
713.492	492
713.9	494.2
714.307	494.4
714.715	490.6
715.123	504.4
715.53	495.8
715.938	502.8
716.367	499
716.775	496.4
717.184	493
717.592	496.6
718	507.8
718.408	526.4
718.816	531.8
719.225	496.2
719.633	496.2
720.042	494
720.472	489.8
720.881	513.4
721.29	494.2
721.699	496.4
722.108	496.8
722.517	496.6
722.926	499.2
723.335	499
723.744	492
724.154	503.2
724.563	497.8
724.973	495.6
725.382	497.2
725.792	504.4
726.202	498.6
726.612	501.6
727.022	499.6
727.432	496.4
779.813	494.6
780.223	526.4
780.634	494.6
781.044	488.6
781.454	492.8
781.865	502.2
782.276	485
782.686	507.4
783.097	491.6
783.508	493.8
783.919	502
784.33	507.2
784.741	508.6
785.152	492.6
785.563	488.2
785.974	494.8
786.386	505.8
786.776	492.4
787.188	495
787.599	495.8
788.011	503.2
788.423	495
788.835	492.8
789.247	490.2
789.659	484.6
790.071	501.2
790.483	531.6
790.874	499
791.286	502.8
791.699	493.4
792.111	492.6
792.524	497.8
792.937	488.8
793.349	490
793.741	483.8
794.154	492.4
794.567	495.8
794.98	496.8
795.393	486
795.785	510
796.198	497.2
796.612	491.6
797.026	480.8
797.439	476.6
797.831	487.6
798.245	481.8
798.659	497.4
799.073	489.8
799.487	496
799.88	492.6
800.294	489.6
800.708	492.6
801.123	494.2
801.516	507.8
801.93	485.4
802.345	486.4
802.76	495.8
803.153	506
803.568	505.8
803.983	500.4
804.377	502.4
804.792	478.4
805.207	488.8
805.601	492.6
806.016	526.6
806.432	483.6
806.826	513
807.242	503.2
807.658	498.2
808.052	492.6
808.468	488.6
808.884	492.2
809.279	495.2
809.695	499.8
810.111	509.2
810.506	492.8
810.922	508
811.339	486.6
811.734	503
812.151	489.4
812.546	489.8
812.963	487
813.38	487.8
813.776	481.2
814.193	507.6
814.589	493.8
815.006	491.2
815.402	484.8
815.82	489.6
816.237	490.4
816.633	491.4
817.051	484.8
817.448	493.2
817.866	486.2
818.262	502
818.68	480.4
819.077	491
819.495	487.2
819.892	521
820.311	487.6
820.708	488.2
821.127	487.6
821.524	506
821.943	488.4
822.34	503.2
822.759	489.6
823.157	486.6
823.576	502.8
823.974	499.2
824.393	576
824.791	487
825.189	484
825.609	489.4
826.007	489.8
826.427	485.6
826.826	492.8
827.246	494.6
827.644	477.2
828.043	504
828.463	496.8
828.862	505.4
829.261	497.6
829.682	476.8
830.081	501.8
830.502	488.2
830.901	494.8
831.301	491.6
831.722	479.4
832.121	494.2
832.521	481.8
832.943	488.6
833.342	488.8
833.742	486.2
834.164	491
834.564	479
834.965	488.4
835.386	487.8
835.787	484.2
836.188	487.2
836.588	491.6
837.01	482.6
837.411	483.6
837.812	496.2
838.213	496
838.636	483.4
839.037	546.6
839.438	495
839.84	497.6
840.263	497.8
840.664	496.8
841.066	496.6
841.468	494.2
841.891	492
842.293	497.2
842.695	502.6
843.098	501.6
843.5	488.2
843.902	488.8
844.326	494.4
844.729	493
845.131	505.4
845.534	492
845.937	498.4
846.34	497.8
846.764	483
847.167	490.6
847.571	485
847.974	490
848.377	483.2
848.781	531.8
849.184	502.8
849.588	483
849.992	486
850.396	488.8
850.821	506.4
851.225	498.4
851.63	491.4
852.034	509.2
852.438	493.8
852.843	549.2
853.247	488.4
853.652	486.8
854.057	505.8
854.462	492.8
854.867	494.4
855.272	517.8
855.677	495.4
856.082	487.8
856.487	487.2
856.893	490.2
857.298	487
857.704	486
858.11	503.2
858.516	500.2
858.922	492.2
859.328	505.4
859.734	488.6
860.14	498.8
860.525	497.2
860.931	481.2
861.338	485.6
861.745	492.6
862.151	487.6
862.558	488.4
862.965	489.8
863.372	488
863.779	485.6
864.186	509.4
864.572	490.8
864.98	505.2
865.387	514.6
865.795	485.8
866.203	503.8
866.61	481
867.018	499.8
867.405	497
867.813	485.8
868.221	485.6
868.63	483.4
869.038	500
869.425	520.6
869.834	492.8
870.243	490.4
870.652	486.2
871.039	487.4
871.448	488
871.857	490.8
872.266	491.6
872.654	486.8
873.064	487.4
873.473	491.6
873.883	487
874.271	483.2
874.681	495.8
875.091	482.2
875.48	499.8
875.89	498
876.3	488.4
876.689	485.2
877.1	492.2
877.51	485
877.9	506.4
878.31	492.6
878.721	516.6
879.111	493.8
879.522	494.4
879.933	482.4
880.323	479.8
880.734	489.2
881.125	492
881.536	491.8
881.948	480.4
882.338	491.8
882.75	492.2
883.141	486.6
883.553	497.8
883.944	502.8
884.356	486.8
884.769	482.4
885.16	491.4
885.573	490.6
885.964	489.6
886.377	492.8
886.768	478.2
887.181	489
887.573	479.8
887.987	494.4
888.378	496.8
888.792	488
889.184	519.4
889.598	483.4
889.99	492.6
890.383	481
890.797	482.6
891.19	500.2
891.604	491.4
891.997	479.8
892.411	482.6
892.805	486
893.198	482
893.613	484.2
894.006	485.6
894.421	484.8
894.815	486.6
895.209	484.2
895.624	516
896.018	498.4
896.412	486
896.828	482.2
897.222	495
897.617	486.4
898.033	509.4
898.427	490.2
898.822	495.8
899.239	480.8
899.634	486.6
900.029	497
900.424	481.4
900.841	477
901.236	495.6
901.632	497.8
902.027	536.6
902.445	495.2
902.841	486.6
903.237	485.6
903.633	495.4
904.05	496
904.447	502.8
904.843	495.4
905.24	482.4
905.636	480.4
906.033	488.8
906.451	499.8
906.848	475.2
907.246	487
907.643	491.8
908.04	493.6
908.438	501.4
908.835	489.6
909.254	486.2
909.652	496.4
910.05	488
910.448	472.8
910.846	492.6
911.244	482
911.643	495.6
912.041	487.2
912.44	499.2
912.839	483.2
913.237	481.8
913.636	480
914.035	488
914.434	482.6
914.834	493.6
915.233	492.2
915.633	479.6
916.032	482.8
916.432	484.8
916.832	491.6
917.232	489
917.632	482.6
918.032	496.8
918.432	484.2
918.833	492
919.233	485
919.634	478
920.035	491
920.436	489.2
920.837	493.4
921.238	482.6
921.639	490.2
922.019	489
922.42	488.8
922.822	499.6
923.224	494.8
923.625	480
924.027	482.6
924.429	505.6
924.81	487.6
925.212	503.4
925.615	485.8
926.017	481.6
926.42	492.4
926.801	490.8
927.204	487.8
927.607	491.4
928.01	496.6
928.413	484.8
928.795	477.8
929.199	488.8
929.602	482.2
930.006	482.4
930.388	482.4
930.792	484.4
931.196	485.2
931.579	514
931.983	477.4
932.388	522.4
932.771	482.8
933.176	478
933.58	483.2
933.964	487.2
934.369	484.8
934.774	491.6
935.158	485.6
935.563	487.4
935.947	486.6
936.353	492.8
936.759	482.6
937.143	495.6
937.549	490.6
937.934	499.2
938.34	506.4
938.746	490
939.131	483
939.538	481.6
939.923	492.4
940.33	487.8
940.716	489.2
941.123	488
941.508	499.2
941.916	501.2
942.302	489.8
942.709	477.8
943.096	481.6
943.503	492.2
943.89	490.8
944.298	483.4
944.685	510.6
945.072	485.6
945.48	491.6
945.867	484.6
946.276	479
946.663	511.6
947.051	497.2
947.46	491.2
947.848	489.4
948.257	488.8
948.645	486
949.033	485
949.443	478
949.831	524.8
950.22	481.8
950.63	491.8
951.018	510.6
951.407	488.6
951.796	473.8
952.207	487
952.596	493.4
952.985	481.4
953.375	517.8
953.786	485.6
954.176	481.4
954.566	494
954.956	477.4
955.367	481
955.758	499.8
956.148	476
956.539	494.6
956.929	478.6
957.341	479.2
957.732	479.8
958.123	488
958.515	477
958.906	490.6
959.297	478.2
959.689	486.6
960.102	477.6
960.494	489.6
960.886	491
961.278	480
961.67	507.2
962.062	512.6
962.455	485.2
962.847	488.6
963.24	487.2
963.633	477.4
964.026	473.8
964.419	491
964.812	497
965.206	482
965.599	488.8
965.993	486.2
966.386	480
966.78	491.8
967.174	491.8
967.569	485
967.963	482.6
968.357	486.8
968.752	476
969.146	486.6
969.541	481
969.936	486.6
970.331	482.4
970.705	485.6
971.1	484.4
971.496	499.2
971.892	485.4
972.287	484.8
972.683	487.6
973.079	477.2
973.454	496.2
973.85	490.4
974.247	491.4
974.643	511.2
975.04	492.6
975.415	488.4
975.812	479.2
976.209	488.4
976.607	476.2
976.982	497
977.38	501.2
977.778	484.4
978.175	486.8
978.552	488
978.95	484.2
979.348	495.2
979.725	525.6
980.123	487
980.522	487.6
980.899	479
981.298	482.8
981.697	480.8
982.075	481.2
982.474	482.4
982.852	484.8
983.251	494.8
983.651	477.2
984.029	481.8
984.429	482.6
984.808	468.6
985.208	486
985.609	476.8
985.987	467
986.388	475.6
986.768	492.4
987.168	468.4
987.548	488.2
987.949	488.4
988.329	486.8
988.731	464.6
989.111	479.8
989.491	480.8
989.893	480.8
990.273	481.8
990.676	473.2
991.057	476.4
991.459	478.6
991.84	477.6
992.221	480.4
992.624	494.6
993.006	488.2
993.388	490.8
993.791	488.6
994.173	488.6
994.576	511
994.959	477.8
995.341	478.4
995.724	480.8
996.128	487
996.511	475.6
996.894	483.2
997.298	482.2
997.681	490.6
998.065	487.4
998.448	477.2
998.854	491
999.237	473.6
999.621	482.2
1000.01	495.8
1000.39	486.6
1000.8	488
1001.18	483.8
1001.56	489
1001.95	492.8
1002.33	483.4
1002.72	477
1003.13	474.2
1003.51	480.4
1003.9	481.6
1004.28	494
1004.67	476
1005.06	486.4
1005.44	502.6
1005.83	475.4
1006.21	483.8
1006.6	477.8
1006.99	492
1007.37	482.8
1007.76	484
1060.12	482
1060.51	478.8
1060.89	491
1061.28	491.4
1061.67	487
1062.06	486.8
1062.45	487.2
1062.83	480
1063.22	492
1063.61	519
1064	489.8
1064.39	486.8
1064.78	478.6
1065.14	496.2
1065.53	485.4
1065.92	481
1066.31	479.6
1066.7	486.2
1067.09	495.8
1067.46	490.4
1067.85	489
1068.24	483.8
1068.63	482.6
1069.02	484.4
1069.39	491
1069.78	480.4
1070.17	473.6
1070.57	480.6
1070.93	486.4
1071.33	480.6
1071.72	492
1072.11	476.4
1072.48	486.4
1072.87	485.8
1073.26	484.6
1073.64	478.4
1074.03	474.4
1074.4	481
1074.79	477.6
1075.19	485.8
1075.56	478.2
1075.95	487.2
1076.34	475.2
1076.72	481.8
1077.11	489.2
1077.48	495.8
1077.88	486.8
1078.25	480.6
1078.64	491.6
1079.02	484.6
1079.41	492
1079.78	479
1080.18	477.2
1080.55	533.8
1080.95	482.2
1081.32	486.2
1081.72	487
1082.09	478.6
1082.49	493
1082.86	477.2
1083.24	478.2
1083.63	471.2
1084.01	485.4
1084.38	485.2
1084.78	480.8
1085.16	485
1085.55	487.2
1085.93	495.6
1086.31	483.2
1086.7	507.2
1087.08	486
1087.46	477.2
1087.83	474.8
1088.23	484.4
1088.61	490
1088.99	492.6
1089.36	481.6
1089.76	488.8
1090.14	488.8
1090.52	485.6
1090.9	479.6
1091.27	493.4
1091.67	505.2
1092.05	492.6
1092.43	482.4
1092.81	490.4
1093.19	485.2
1093.57	480.4
1093.95	481.2
1094.35	485.6
1094.73	493.2
1095.11	482.2
1095.49	479.6
1095.87	487.4
1096.25	495.2
1096.63	481.6
1097.01	475.6
1097.39	491
1097.77	479.4
1098.15	484.6
1098.53	470.8
1098.91	481.2
1099.29	482.6
1099.68	493.8
1100.06	493.4
1100.44	478.4
1100.82	479.2
1101.18	485.8
1101.56	482.6
1101.95	477.4
1102.33	481.8
1102.71	481.4
1103.1	478.2
1103.48	464.8
1103.86	469
1104.22	484.2
1104.61	482.6
1104.99	474.8
1105.38	478.8
1105.76	484.8
1106.12	483
1106.51	513.4
1106.89	487.8
1107.26	486.2
1107.64	488.2
1108.03	477
1108.41	485.8
1108.78	481.8
1109.16	477
1109.55	491.6
1109.91	478
1110.3	473.2
1110.69	492.8
1111.05	480.2
1111.44	482.8
1111.8	481.2
1112.19	484
1112.58	485
1112.94	481.6
1113.33	476.6
1113.7	475.6
1114.09	476
1114.45	480.8
1114.84	478.6
1115.21	486
1115.6	490.6
1115.96	489.8
1116.35	482.2
1116.72	475.8
1117.11	486
1117.48	483.4
1117.85	487.6
1118.24	494.8
1118.6	483.4
1118.99	478
1119.36	487.4
1119.73	484.2
1120.12	482.6
1120.49	472.4
1120.86	491.6
1121.25	478.8
1121.62	467
1121.99	479.8
1122.38	489
1122.76	472.4
1123.13	477.4
1123.5	486
1123.89	486.8
1124.26	473.4
1124.63	478.4
1125	476.4
1125.4	471.8
1125.77	474.4
1126.14	468.8
1126.51	476.4
1126.88	482.4
1127.26	479.2
1127.63	463.2
1128.02	470.2
1128.4	476.8
1128.77	473.8
1129.14	476.6
1129.52	478
1129.89	478
1130.26	476.4
1130.64	473.6
1131.01	469.2
