#lambda/nm	C1
208.295	470.4
208.67	437.8
209.045	396.6
209.419	399.6
209.794	536.4
210.169	511.2
210.544	611.4
210.919	533
211.295	519.2
211.67	533.6
212.045	518.8
212.421	527
212.796	544
213.172	512.8
213.547	525.6
213.923	522.6
214.299	525.6
214.675	535.4
215.051	534.2
215.427	530
215.803	539
216.179	522.8
216.555	516.2
216.932	535.4
217.308	528
217.684	527.2
218.061	524.4
218.438	532.8
218.814	519.8
219.191	534.2
219.568	518.2
219.945	520.6
220.322	531.6
220.699	531
221.076	528.2
221.453	530.4
221.83	521.6
222.208	517
222.585	520.6
222.962	526.2
223.34	533.2
223.717	523
224.095	521.4
224.473	526.6
224.851	517.2
225.229	511.6
225.607	537.8
225.985	518.4
226.363	532
226.741	526.4
227.119	523.8
227.497	534.8
227.876	512.8
228.254	536
228.633	528.4
229.011	535.2
229.39	529.2
229.769	534.6
230.148	533.4
230.527	553.4
230.905	528.4
231.284	531.4
231.664	526.8
232.043	544.2
232.422	525.6
232.801	522.2
233.181	536.8
233.56	526.8
233.94	527
234.319	519
234.699	524.2
235.079	562.4
235.458	558.6
235.838	536.2
236.218	522.2
236.598	518.2
236.978	525.6
237.358	521.2
237.738	518.8
238.119	528.6
238.499	527.2
238.88	531.6
239.26	543.2
239.641	524
240.021	530.8
240.402	524.8
240.783	523.4
241.163	521.6
241.544	528.4
241.925	528.8
242.306	532.8
242.687	523.4
243.069	531.8
243.45	531.4
243.831	529.6
244.212	527.2
244.594	564
244.975	530.2
245.357	524
245.739	513.6
246.12	522.8
246.502	534.8
246.884	533
247.266	521.6
247.648	528.4
248.03	546
248.412	529.8
248.794	528.6
249.176	519.8
249.559	533.4
249.941	524.4
250.323	517
250.706	521.4
251.089	527.6
251.471	523.4
251.854	526
252.237	529
252.62	535.8
253.002	529.6
253.385	535.2
253.769	542.8
254.152	529.2
254.535	522.6
254.918	518.8
255.301	530.8
255.685	526.4
256.068	522
256.452	557
256.835	536.4
257.219	531.2
257.603	537.4
257.986	522.8
258.37	536.2
258.754	513.4
259.138	536.4
259.522	536
259.906	524.8
260.29	521
260.675	521.6
261.059	526.6
261.443	518.8
261.828	531.4
262.212	539.2
262.597	513.4
262.981	519.2
263.366	526.6
263.751	527
264.136	525
264.521	527.4
264.906	518.4
265.291	534.2
265.676	528.2
266.061	535.8
266.446	539.2
266.831	538.4
267.217	542.6
267.602	526.6
267.987	528.2
268.373	526.6
268.759	539
269.144	531.8
269.53	534.4
269.916	526.8
270.302	524.4
270.688	533.4
271.074	535.6
271.46	541.4
271.846	560.4
272.232	527.8
272.618	519
273.004	522.8
273.391	538.8
273.777	536.8
274.164	530.6
274.55	544.4
274.937	529
275.324	521
275.71	529.2
276.097	534.4
276.484	521
276.871	522.6
277.258	533.4
277.645	515.6
278.032	526.4
278.419	519.8
278.807	531.4
279.194	522.4
279.581	512
279.969	530.6
280.356	527
280.744	532
281.131	542
281.519	538.4
281.907	523.6
282.295	523.6
282.682	533.2
283.07	531.6
283.458	530.2
283.846	538.2
284.235	540.4
284.623	540.2
285.011	519.6
285.399	529.4
285.788	525
286.176	517.4
286.565	536.4
286.953	532.2
287.342	522.8
287.731	521.2
288.119	520.6
288.508	527.8
288.897	528.6
289.286	533.6
289.675	526
290.064	536.4
290.453	523.6
290.821	521.6
291.21	547
291.599	531.6
291.989	520.6
292.378	532.8
292.768	540.6
293.157	524.6
293.547	536
293.936	520.4
294.326	528.4
294.716	533
295.106	526.2
295.496	532.2
295.886	532.2
296.276	532.8
296.666	526.4
297.056	520.6
297.446	515.4
297.836	531.2
298.227	526
298.617	530.6
299.008	542
299.398	521
299.789	523.6
300.179	525.2
300.57	538.4
300.961	523.6
301.352	526.4
301.742	529.8
302.133	522.4
302.524	528
302.915	532.8
303.307	521.8
303.698	537.8
304.089	533
304.48	525.8
304.872	528.8
305.263	530
305.655	523.4
306.046	528.6
306.438	532.8
306.829	520
307.221	534.8
307.613	533.8
308.005	532.8
308.397	541.2
308.789	547.4
309.181	546.2
309.573	547.2
309.965	534
310.357	527.2
310.749	538.8
311.142	524.2
311.534	520
311.926	527.4
312.319	523.6
312.711	527.6
313.104	544
313.497	523.8
313.889	560.2
314.282	540.6
314.675	545.4
315.068	528.6
315.461	531.4
315.854	552.8
316.247	525.6
316.64	530.4
317.033	526.6
317.405	528.6
317.798	528.2
318.192	529.2
318.585	517.8
318.979	526.4
319.372	520.8
319.766	522.4
320.16	535.6
320.553	540
320.947	537.2
321.341	520.2
321.735	527.6
322.129	521.2
322.523	540.8
322.917	514.4
323.311	529.6
323.705	520.4
324.099	534.6
324.494	538.6
324.888	535
325.282	530.8
325.677	530.2
326.071	529
326.466	536.4
326.861	532.2
327.255	536.8
327.65	541.4
328.045	541.6
328.44	535.8
328.835	529.2
329.23	526
329.625	549.2
330.02	527
330.415	544.4
330.81	531.4
331.206	530.2
331.601	521
331.996	535.8
332.37	547.2
332.766	522.6
333.161	544
333.557	528.8
333.953	521
334.348	711.4
334.744	527.2
335.14	518.4
335.536	523
335.932	533
336.328	515.4
336.724	538.6
337.12	528.4
337.516	535.6
337.913	524.8
338.309	546.2
338.705	524.8
339.102	537.4
339.498	523.6
339.895	536.2
340.291	522.6
340.688	538.8
341.085	517.6
341.481	521.6
341.878	525
342.275	534
342.672	522.6
343.069	523.2
343.466	515.6
343.842	537.6
344.239	517
344.636	529
345.033	523
345.431	516.6
345.828	523
346.225	527.4
346.623	550.2
347.02	532
347.418	537.4
347.816	542
348.213	529.8
348.611	529.4
349.009	523.2
349.407	537.2
349.805	519.4
350.203	521
350.601	539
350.999	518.8
351.397	557.8
351.795	526
352.193	533.2
352.57	527.2
352.969	538
353.367	517.2
353.766	517.4
354.164	514
354.563	537.2
354.961	522
355.36	523.2
355.759	523.8
356.158	520.4
356.557	519.4
356.956	517.4
357.355	507.4
357.754	532.2
358.153	527.8
358.552	545.2
358.951	520.8
359.35	527.4
359.75	519.6
360.149	515.6
360.527	511.4
360.926	513.2
361.326	525.6
361.726	516.8
362.125	518.2
362.525	523.2
362.925	517
363.325	521.4
363.724	523
364.124	520.8
364.524	520.6
364.924	518
365.324	537.2
365.725	506.6
366.125	517.4
366.525	528
366.904	519.6
367.304	510.6
367.705	526.6
368.105	529.4
368.506	514.8
368.906	527.4
369.307	520.6
369.708	519.2
370.108	509.2
370.509	523.6
370.91	516.6
371.311	520
371.712	523.8
372.113	524
372.514	517
372.894	527
373.295	516.2
373.696	534.8
374.097	527.8
374.499	540.8
374.9	521.8
375.301	517.8
375.703	516.8
376.105	517.2
376.506	525.8
376.908	523.4
377.309	524.4
377.711	521.8
378.113	516.4
378.493	525.2
378.895	524.8
379.297	535.4
379.699	510.2
380.102	520.4
380.504	511.6
380.906	515.8
381.308	547.4
381.71	519.6
382.113	528.6
382.515	518.6
382.918	528.2
383.299	513.2
383.701	527.6
384.104	522.2
384.507	501.2
384.909	516.6
385.312	514.8
385.715	509.6
386.118	520
386.521	512.2
386.924	529.4
387.327	517.2
387.709	512.4
388.112	509.4
388.515	510.2
388.918	514
389.322	525.4
389.725	514.8
390.129	537.2
390.532	526
390.936	522.6
391.339	519.2
391.743	521.2
392.125	526.8
392.529	522.6
392.933	522.6
393.337	513.2
393.74	509.4
394.144	523
394.548	510.8
394.953	517.4
395.357	524.6
395.761	512.8
396.144	517
396.548	522.4
396.952	517.8
397.357	516.6
397.761	515.8
398.166	511
398.57	513.2
398.975	510
399.379	517.8
399.763	558.2
400.168	515.6
400.572	524
400.977	515.8
401.382	535.6
401.787	520
402.192	538.4
402.597	537.8
403.002	507.8
403.386	523.6
403.791	531.4
404.197	518.2
404.602	516.4
405.007	512.8
405.413	519.8
405.818	518.2
406.224	515
406.608	519.8
407.014	511.4
407.42	534.6
407.825	512.4
408.231	534.2
408.637	519.8
409.043	535.8
409.449	517.6
409.834	507
410.24	517.4
410.646	529.6
411.052	524.6
411.458	524.6
411.865	520.4
412.271	524
412.677	519.4
413.062	521.6
413.469	515.8
413.875	536.4
414.282	528.6
414.689	524
415.095	521.2
415.502	512.2
415.888	528
416.294	509.4
416.701	554.2
417.108	509.8
417.515	524
417.923	513
418.33	527
418.715	523.6
419.123	510
419.53	507.2
419.937	519.4
420.345	536.2
420.752	518.4
421.16	533.4
421.546	524.2
421.953	528
422.361	512.4
422.769	516.6
423.177	513
423.585	534
423.992	536.8
424.379	525.8
424.787	529.2
425.195	536.2
425.603	522.6
426.011	528.2
426.419	527
426.806	525.6
427.214	530.8
427.623	536.4
428.031	536.2
428.44	540.4
428.848	543
429.235	553.2
429.644	542.4
430.053	547.8
430.461	573.8
430.87	579
431.279	579.8
431.666	578.2
432.075	605.4
432.484	619.8
432.893	621.6
433.302	637.8
433.711	680
434.099	660.2
434.508	685.8
434.918	691.4
435.327	716.8
435.737	727
436.125	742.8
436.534	772.6
436.944	775.2
437.353	799.4
437.763	825.6
438.173	834.2
438.561	852.4
438.971	861.4
439.381	867.8
439.791	900.4
440.201	898.4
440.589	926.4
440.999	946
441.409	955.4
441.819	959.8
442.23	988.6
442.619	999.4
443.029	991.2
443.439	1013.6
443.85	1020.8
444.26	1042
444.649	1047.4
445.06	1063.8
445.471	1060.2
445.881	1066
446.292	1088.8
446.682	1118.8
447.092	1092
447.503	1144.2
447.914	1112.2
448.325	1119.8
448.715	1121.4
449.126	1100.8
449.537	1121.2
449.948	1140
450.338	1137.4
450.75	1166.2
451.161	1162
451.572	1153.6
451.984	1149.4
452.374	1139.6
452.786	1148.4
453.197	1154.2
453.609	1169.4
453.999	1145.8
454.411	1160.2
454.823	1167.4
455.235	1174.8
455.647	1170.2
456.037	1178.8
456.449	1164.2
456.862	1162.6
457.274	1177.6
457.665	1175.6
458.077	1180.8
458.489	1192
458.902	1183.8
459.293	1177.8
459.705	1189.2
460.118	1174.6
460.53	1194.6
460.921	1185.8
461.334	1191
461.747	1192
462.16	1190.2
462.551	1190.4
462.964	1176.6
463.377	1175.8
463.79	1167.6
464.182	1191.4
464.595	1182.8
465.008	1177
465.421	1172.2
465.813	1187.8
466.226	1185.6
466.64	1175.4
467.053	1228.2
467.445	1196.2
467.859	1201.2
468.272	1189
468.686	1205
469.078	1181
469.492	1178.8
469.906	1187.6
470.298	1183.4
470.712	1173.2
471.126	1197.2
471.54	1169.2
471.933	1181.8
472.347	1190.2
472.761	1159.4
473.175	1159.6
473.568	1170.2
473.982	1157.8
474.397	1164
474.79	1169.2
475.204	1151
475.619	1149.8
476.033	1155
476.426	1140
476.841	1141.6
477.256	1152.2
477.649	1125.2
478.064	1131.4
478.479	1116.6
478.872	1121.8
479.287	1119.4
479.702	1119.2
480.118	1113.6
480.511	1118.8
480.927	1092
481.342	1107.4
481.736	1102.4
482.151	1091
482.566	1115.2
482.96	1098
483.376	1102.4
483.792	1098.4
484.186	1089
484.602	1095
485.017	1082.6
485.412	1075.2
485.827	1072
486.243	1070.4
486.638	1085.6
487.054	1066.6
487.47	1076.8
487.865	1058.2
488.281	1053.8
488.697	1039.8
489.092	1047.2
489.508	1032.4
489.925	1038
490.32	1018.2
490.736	1030.8
491.153	1026.2
491.548	1030
491.964	1018.8
492.381	998.8
492.776	1022.8
493.193	1007
493.61	1008.6
494.006	1006.4
494.422	985.6
494.84	991
495.235	984.6
495.652	975.6
496.069	977.6
496.465	966.2
496.883	970
497.3	987
497.696	956
498.113	958.2
498.509	944.4
498.927	943
499.344	946.8
499.741	929.8
500.158	941
500.576	932.2
500.973	924.8
501.39	921
501.787	924
502.205	929
502.623	910.8
503.02	904
503.438	902.6
503.856	902.6
504.253	898.8
504.671	887
505.068	884.8
505.486	884.2
505.905	889.4
506.302	881.8
506.72	887.6
507.118	853.2
507.536	867.8
507.955	862
508.352	867.6
508.771	860.2
509.169	850.4
509.587	851.6
510.006	841
510.404	844.4
510.823	835.2
511.221	832.8
511.64	833.6
512.038	842.6
512.457	823.2
512.877	815.2
513.275	800.8
513.694	810.8
514.092	811.6
514.512	808.2
514.91	806.8
515.33	803
515.749	793
516.148	797.4
516.568	788.2
516.966	789.4
517.386	780
517.785	775
518.205	789.8
518.603	772.4
519.024	771
519.444	774.6
519.843	768.8
520.263	778.2
520.662	775.6
521.082	768
521.481	765.4
521.902	758.6
522.301	753.4
522.722	753.6
523.121	747.6
523.542	742.8
523.963	750.2
524.362	748.2
524.783	732.6
525.183	734
525.604	744.4
526.003	731
526.425	727.8
526.824	717
527.246	726
527.646	721.2
528.067	725.8
528.467	718.4
528.888	711.8
529.289	712.2
529.71	710.8
530.11	711
530.532	703.6
530.932	704.2
531.354	696.4
531.755	718.4
532.176	696.8
532.577	690.4
532.999	691.2
533.4	682
533.822	691.4
534.223	687.2
534.645	675.2
535.046	676
535.468	676
535.869	692
536.292	675.4
536.693	707.6
537.115	682.2
537.516	671.8
537.939	666.4
538.34	683.2
538.742	676.2
539.165	670.6
539.566	673.8
539.989	664
540.391	658.2
540.814	661
541.216	656.8
541.639	658.2
542.041	659.6
542.464	653.8
542.866	644.4
543.268	643.8
543.691	652.8
544.093	647.4
544.517	666
544.919	643.2
545.343	659.2
545.745	636.2
546.147	646.2
546.571	634.6
546.974	629
547.398	632.2
547.8	649.6
548.224	639.4
548.627	625.4
549.03	630.6
549.454	621.2
549.857	620.8
550.281	623.6
550.684	619.8
551.087	637.4
551.512	622.4
551.915	625
552.34	609.4
552.743	618.4
553.146	611.6
553.571	611.4
553.975	635
554.399	603.4
554.803	648.2
555.207	607.2
555.632	598.6
556.036	603.6
556.461	608
556.865	604.6
557.268	597.2
557.694	605.2
558.098	606.8
558.502	603.2
558.927	592.4
559.332	596.6
559.736	596.6
560.162	587.2
560.566	600.4
560.992	601.8
561.396	591
561.801	584
562.227	589.6
562.631	592
563.036	589.2
563.462	594.2
563.867	574.4
564.272	573.4
564.698	576.4
565.103	569
565.508	594.8
565.935	578.8
566.34	574.8
566.745	581.8
567.172	573.2
567.577	584.2
567.982	591.2
568.409	580.2
568.815	579
569.22	571.6
569.626	577.4
570.053	559.6
570.459	572.2
570.865	575.4
571.292	578.8
571.698	572.6
572.104	562.8
572.531	561.4
572.937	584
573.343	562.2
573.75	571.8
574.177	564.4
574.583	571.6
574.99	562.2
575.396	572
575.824	561
576.231	557.4
576.637	551.6
577.065	581
577.472	549.8
577.879	558.6
578.286	570.8
578.714	556.6
579.121	559
579.528	560.6
579.935	560
580.364	553.4
580.771	538.8
581.178	544
581.585	551.2
582.014	555
582.421	548
582.829	547.2
583.236	560
583.644	546.2
584.073	550.8
584.481	547.4
584.889	546.4
585.296	543.8
585.726	556
586.134	535.6
586.542	542.6
586.95	549
587.358	539.4
587.787	541.4
588.196	529.6
588.604	534.2
589.012	547.8
589.421	532.8
589.851	532.2
590.259	535.8
590.668	537.8
591.076	566.8
591.485	525
591.894	538.4
592.324	553.4
592.733	548
593.142	521.2
593.551	536.8
593.96	562.4
594.369	524.6
594.8	526.8
595.209	536.4
595.618	526.6
596.028	532.2
596.437	520
596.847	529.6
597.256	538.4
597.687	538
598.097	535.4
598.507	525.4
598.917	534.6
599.327	531.2
599.736	533
600.146	533.2
600.556	532.2
600.988	531.8
601.398	530
601.808	532.8
602.219	521.4
602.629	525
603.039	525.6
603.45	539
603.86	521.2
604.271	535.6
604.703	526.4
605.114	524
605.525	521.6
605.935	518.4
606.346	534.6
606.757	518.6
607.168	514.4
607.579	518.2
607.99	531.6
608.402	526.4
608.813	522.8
609.224	515.6
609.636	508.4
610.047	507.2
610.48	514
610.892	519.2
611.303	525
611.715	514
612.127	512.6
612.539	513.4
612.95	518.4
613.362	503.4
613.774	513.6
614.186	513.6
614.599	518.4
615.011	524.2
615.423	521.4
615.835	512.4
616.248	510.2
616.66	523
617.073	505.4
617.485	514.6
617.898	520.8
618.311	519
618.723	524.8
619.136	545.4
619.549	529.6
619.962	535.6
620.375	521.8
620.788	516.8
621.201	516.8
621.614	512.6
622.028	515.2
622.441	518.2
622.854	535
623.268	513.4
623.681	520.4
624.095	522
624.509	524.6
624.922	513.6
625.336	508.4
625.728	519.4
626.142	528.8
626.556	531
626.97	524.6
627.384	519.6
627.799	515.2
628.213	528
628.627	510.6
629.041	514.4
629.456	511.2
629.87	514.4
630.285	524
630.699	517.2
631.093	511.4
631.507	524.2
631.922	514.2
632.337	529.2
632.752	504
633.167	509.6
633.582	512.2
633.997	503.4
634.412	515.2
634.806	512.8
635.221	505.2
635.637	523.8
636.052	508.2
636.468	512.6
636.883	524.8
637.299	511.6
637.715	505
638.109	510.4
638.525	500.6
638.941	522.8
639.357	512
639.773	517.2
640.189	505.2
640.584	506.4
641	509.2
641.416	501.6
641.832	499.2
642.249	500.6
642.665	505.4
643.06	516.6
643.477	518
643.894	497.8
644.31	500.8
644.727	506.6
645.123	512
645.54	502.4
645.957	509.8
646.374	517.4
646.77	508.8
647.187	533.4
647.604	513.8
648.021	499.4
648.439	499
648.835	506.4
649.252	507
649.67	513.4
650.088	506.8
650.484	516.4
650.902	515.8
651.32	521.6
651.738	507.6
652.134	511.2
652.552	526.4
652.971	516.6
653.389	511.8
653.786	512.6
654.204	515.6
654.622	500.8
655.019	502.8
655.438	506.8
655.857	509.6
656.275	510.8
656.673	498.6
657.091	506.2
657.51	505.2
657.908	513.8
658.327	510.2
658.746	500.2
659.144	504.8
659.563	518.8
659.982	505.6
660.38	494.8
660.8	503.4
661.219	511.6
661.617	510.4
662.037	498.4
662.457	517.8
662.855	497.6
663.275	519.8
663.695	509.8
664.094	502.8
664.514	504.8
664.934	490.2
665.333	506
665.753	504
666.152	505.2
666.572	493.6
666.993	512.8
667.392	499.2
667.812	505
668.212	499.4
668.632	512.2
669.053	497.4
669.453	501.4
669.874	503.8
670.273	511.2
670.694	500.4
671.116	517.4
671.515	506
671.937	498
672.337	501
672.758	506
673.158	516.4
673.58	503.6
673.98	500.6
674.402	510.2
674.824	506.2
675.224	499
675.646	496
676.047	497.8
676.469	504.6
676.869	506.4
677.292	505
677.693	492.4
678.115	497
678.516	511.2
678.939	505.4
679.34	501
679.762	505.4
680.164	501.6
680.586	498
680.988	497.4
681.411	518.8
681.812	501.8
682.236	504.8
682.637	504.6
683.061	490
683.462	500.8
683.864	499.2
684.288	506
684.69	490.4
685.114	511
685.516	504.6
685.94	494
686.342	507.8
686.766	489
687.168	491.4
687.571	506.2
687.995	504.6
688.398	496.6
688.822	499.2
689.225	509
689.628	513
690.052	497.4
690.456	503.8
690.88	490.4
691.284	493
691.687	498
692.112	487
692.515	484.4
692.919	498
693.344	502
693.747	497.6
694.173	496
694.577	510.4
694.98	501.2
695.406	495.2
695.81	497
696.214	497.8
696.64	499.6
697.044	500.4
697.448	507
697.874	505
698.279	498.2
698.684	494
699.11	497
699.514	495.4
699.919	487.2
700.324	484.8
700.75	496
701.156	502.2
701.561	510
701.987	500.4
702.393	502.8
702.798	498.4
703.203	486.4
703.63	485.4
704.036	490
704.442	497.6
704.847	489
705.274	487.6
705.68	494.4
706.086	495
706.492	484.2
706.92	497.4
707.326	509.6
707.732	493.8
708.139	491.2
708.545	488.4
708.973	483.8
709.38	486.6
709.786	490
710.193	509.2
710.6	498.4
711.028	488.6
711.435	492
711.842	499.4
712.249	496.6
712.656	498.2
713.064	502.2
713.492	490
713.9	495.6
714.307	498.4
714.715	494.2
715.123	497.4
715.53	501
715.938	508.6
716.367	499
716.775	499.4
717.184	489
717.592	496.8
718	505.6
718.408	528.8
718.816	530.2
719.225	494.4
719.633	498.4
720.042	491.2
720.472	493.4
720.881	514
721.29	499.6
721.699	493
722.108	505
722.517	493
722.926	487.6
723.335	505.8
723.744	491.8
724.154	507.4
724.563	493.8
724.973	498.6
725.382	497.8
725.792	495.2
726.202	490.6
726.612	499.6
727.022	497
727.432	491
779.813	491.6
780.223	528
780.634	491.2
781.044	490.4
781.454	495.6
781.865	500.8
782.276	486
782.686	500
783.097	496.8
783.508	490
783.919	491.2
784.33	492.6
784.741	496.2
785.152	489
785.563	474.6
785.974	491
786.386	498.8
786.776	493.4
787.188	493.8
787.599	493.8
788.011	496
788.423	498.6
788.835	487
789.247	483.8
789.659	491.2
790.071	489.4
790.483	525
790.874	492.6
791.286	499.4
791.699	492.2
792.111	502.8
792.524	494.2
792.937	494.4
793.349	490.2
793.741	490.4
794.154	487.8
794.567	508.8
794.98	495
795.393	485
795.785	506.6
796.198	496.8
796.612	497.4
797.026	492.4
797.439	481.6
797.831	485.4
798.245	485
798.659	490.2
799.073	484.2
799.487	491
799.88	490.6
800.294	494.4
800.708	491.2
801.123	498
801.516	512.2
801.93	484.2
802.345	487.6
802.76	492.2
803.153	506
803.568	501.8
803.983	501.2
804.377	499
804.792	491
805.207	480
805.601	494.8
806.016	526.4
806.432	493.8
806.826	520.2
807.242	499.8
807.658	491.8
808.052	490.4
808.468	490.4
808.884	485.6
809.279	490.4
809.695	503.8
810.111	510.6
810.506	502.6
810.922	511
811.339	494.4
811.734	492.8
812.151	487.2
812.546	492.6
812.963	488.4
813.38	494.6
813.776	490.2
814.193	499.4
814.589	486.2
815.006	487.6
815.402	487.8
815.82	496.2
816.237	495.2
816.633	495.2
817.051	484.8
817.448	494.4
817.866	490.4
818.262	507.4
818.68	493.6
819.077	497
819.495	495
819.892	523.4
820.311	486.6
820.708	494.4
821.127	487.4
821.524	502.6
821.943	492.4
822.34	509.6
822.759	495.2
823.157	488.8
823.576	500.2
823.974	495.2
824.393	555.4
824.791	494
825.189	484.4
825.609	489
826.007	495.6
826.427	485
826.826	486.4
827.246	498.2
827.644	477
828.043	503.6
828.463	486.8
828.862	492.8
829.261	502.6
829.682	473.8
830.081	493.4
830.502	491.6
830.901	496.6
831.301	486
831.722	485.4
832.121	483
832.521	483
832.943	484
833.342	487.6
833.742	487.2
834.164	486.6
834.564	474.2
834.965	493
835.386	486
835.787	485.4
836.188	485.4
836.588	496.8
837.01	492.6
837.411	488.8
837.812	488.6
838.213	494.6
838.636	477
839.037	543.6
839.438	493.8
839.84	495
840.263	494
840.664	491.6
841.066	486.8
841.468	489.8
841.891	491.6
842.293	497.4
842.695	490.4
843.098	498.4
843.5	489.6
843.902	491
844.326	498.8
844.729	490.6
845.131	500.2
845.534	490.6
845.937	497.4
846.34	500.6
846.764	485.8
847.167	490.6
847.571	482.8
847.974	488
848.377	486.8
848.781	529.2
849.184	496
849.588	488.2
849.992	488
850.396	494.8
850.821	496.2
851.225	492.6
851.63	483.8
852.034	502
852.438	486
852.843	545.2
853.247	483
853.652	478.4
854.057	501.6
854.462	488.6
854.867	495
855.272	512
855.677	488.4
856.082	484.8
856.487	476
856.893	496
857.298	488.4
857.704	482.4
858.11	490.4
858.516	498.8
858.922	486.2
859.328	500
859.734	487
860.14	490.8
860.525	488.8
860.931	484.4
861.338	484.8
861.745	485.2
862.151	499.4
862.558	492.2
862.965	483.6
863.372	489.4
863.779	485.6
864.186	502
864.572	491.2
864.98	503.6
865.387	512.6
865.795	480
866.203	487
866.61	488.2
867.018	498
867.405	498.4
867.813	488.2
868.221	479.8
868.63	481
869.038	490
869.425	519.6
869.834	483.8
870.243	488.6
870.652	485.4
871.039	482.8
871.448	486.8
871.857	499.6
872.266	494.2
872.654	488.2
873.064	491.8
873.473	500
873.883	487.6
874.271	478.8
874.681	502.2
875.091	482.4
875.48	495.6
875.89	500.6
876.3	491.6
876.689	483
877.1	489.8
877.51	482.8
877.9	500.6
878.31	486
878.721	510.2
879.111	492.4
879.522	488
879.933	481.6
880.323	485.6
880.734	486.4
881.125	485.4
881.536	491.4
881.948	485.8
882.338	487.8
882.75	496.8
883.141	485.8
883.553	493.8
883.944	508.4
884.356	492.6
884.769	487.8
885.16	491.4
885.573	491.6
885.964	487.8
886.377	486.6
886.768	481.6
887.181	494.2
887.573	484.8
887.987	497
888.378	493.6
888.792	490.2
889.184	531.4
889.598	490.2
889.99	499.4
890.383	488.6
890.797	479
891.19	500.4
891.604	484
891.997	479.2
892.411	473.8
892.805	489.2
893.198	481.2
893.613	475.8
894.006	485.6
894.421	484
894.815	485.2
895.209	493.4
895.624	515.6
896.018	499.6
896.412	483.8
896.828	483.6
897.222	485.8
897.617	490
898.033	505
898.427	489.8
898.822	486.2
899.239	485.8
899.634	481.4
900.029	504.4
900.424	483.8
900.841	482.6
901.236	500.2
901.632	500.2
902.027	543
902.445	491.8
902.841	491.6
903.237	493.8
903.633	502.6
904.05	487.8
904.447	497.2
904.843	494.6
905.24	482.2
905.636	480.4
906.033	489.6
906.451	500.8
906.848	488.8
907.246	485.8
907.643	495.8
908.04	491.4
908.438	501.8
908.835	483.4
909.254	486.2
909.652	496.2
910.05	483.8
910.448	482
910.846	488.2
911.244	480.6
911.643	490
912.041	489.6
912.44	494
912.839	481.8
913.237	481.6
913.636	488.2
914.035	495.6
914.434	477
914.834	493.2
915.233	496
915.633	488.4
916.032	481
916.432	482.8
916.832	504.2
917.232	488.8
917.632	484.4
918.032	494.6
918.432	480.8
918.833	482.4
919.233	488.8
919.634	478.2
920.035	490.8
920.436	480.2
920.837	490.6
921.238	490.6
921.639	484.8
922.019	491.2
922.42	490.4
922.822	496
923.224	484.2
923.625	489.6
924.027	481
924.429	502.2
924.81	488
925.212	488.2
925.615	484.4
926.017	492.2
926.42	495.6
926.801	478.8
927.204	491.4
927.607	491.8
928.01	500.4
928.413	480
928.795	471.2
929.199	484
929.602	488.8
930.006	484
930.388	481
930.792	492.4
931.196	491
931.579	517
931.983	479
932.388	522.4
932.771	486.6
933.176	473.4
933.58	487.2
933.964	492.2
934.369	478.6
934.774	491.6
935.158	487.6
935.563	484.6
935.947	494.2
936.353	492.4
936.759	489.6
937.143	491.6
937.549	482.8
937.934	491.8
938.34	497.8
938.746	476
939.131	481.6
939.538	485.2
939.923	490
940.33	485.2
940.716	492.8
941.123	491.8
941.508	490
941.916	500.8
942.302	486.2
942.709	481.2
943.096	476.4
943.503	484.8
943.89	484
944.298	479.8
944.685	507.8
945.072	480.2
945.48	484
945.867	475.2
946.276	478.6
946.663	502
947.051	496.8
947.46	495.6
947.848	475.4
948.257	480.4
948.645	482
949.033	481.6
949.443	470.6
949.831	509.6
950.22	482.4
950.63	485.6
951.018	510.6
951.407	484.6
951.796	473.4
952.207	490.4
952.596	491.4
952.985	480.2
953.375	520.2
953.786	480.2
954.176	481.6
954.566	490
954.956	473.8
955.367	481
955.758	501.8
956.148	474.2
956.539	488.4
956.929	478.4
957.341	478.6
957.732	486.6
958.123	493
958.515	488.4
958.906	488.4
959.297	480.4
959.689	486.8
960.102	482.8
960.494	486.8
960.886	479.4
961.278	479.4
961.67	498.2
962.062	514
962.455	483.2
962.847	467.6
963.24	482.4
963.633	475.4
964.026	476
964.419	489.2
964.812	487.2
965.206	478.6
965.599	490
965.993	485.8
966.386	481.6
966.78	489.6
967.174	489.8
967.569	483
967.963	487.4
968.357	478.8
968.752	472.8
969.146	475.8
969.541	482
969.936	480
970.331	486.4
970.705	481.2
971.1	482.2
971.496	487.8
971.892	477.2
972.287	481
972.683	479.6
973.079	481.6
973.454	489.6
973.85	486.6
974.247	492.4
974.643	500.6
975.04	492.8
975.415	489.6
975.812	478
976.209	484.4
976.607	471.2
976.982	493.2
977.38	505
977.778	482.8
978.175	482.8
978.552	483.6
978.95	485.6
979.348	495
979.725	521
980.123	476.2
980.522	486.8
980.899	481
981.298	484.6
981.697	478.4
982.075	481.2
982.474	485.2
982.852	479.4
983.251	491.2
983.651	483.2
984.029	487
984.429	480.8
984.808	469.4
985.208	474.2
985.609	481.2
985.987	479.4
986.388	475.4
986.768	488.8
987.168	480.8
987.548	483.8
987.949	489
988.329	489.8
988.731	476
989.111	478.8
989.491	479.6
989.893	484.6
990.273	491.4
990.676	475.4
991.057	475.4
991.459	476.6
991.84	484.4
992.221	481.6
992.624	502.4
993.006	494.6
993.388	484.4
993.791	483.4
994.173	491
994.576	515
994.959	483.2
995.341	474.4
995.724	479.6
996.128	481
996.511	479.6
996.894	476
997.298	475.2
997.681	487
998.065	481
998.448	472.6
998.854	482.4
999.237	470.2
999.621	496.6
1000.01	489.2
1000.39	476.2
1000.8	474.8
1001.18	486
1001.56	483.6
1001.95	483.2
1002.33	482.4
1002.72	482
1003.13	482
1003.51	480.2
1003.9	487.4
1004.28	495.2
1004.67	481
1005.06	481.4
1005.44	504.2
1005.83	475.6
1006.21	480.2
1006.6	485.6
1006.99	488.6
1007.37	485.2
1007.76	488.6
1060.12	477.2
1060.51	480.2
1060.89	487
1061.28	487.8
1061.67	486.4
1062.06	480.6
1062.45	483
1062.83	476.8
1063.22	489.8
1063.61	517.4
1064	499.6
1064.39	479.8
1064.78	488.2
1065.14	486.4
1065.53	486.8
1065.92	484.4
1066.31	478
1066.7	489
1067.09	490
1067.46	492.6
1067.85	484
1068.24	482.2
1068.63	489.4
1069.02	476.6
1069.39	485.2
1069.78	476
1070.17	471
1070.57	474.6
1070.93	481.4
1071.33	472.6
1071.72	476.6
1072.11	485
1072.48	480.8
1072.87	488.8
1073.26	475.8
1073.64	475.6
1074.03	480.4
1074.4	490
1074.79	482
1075.19	482.4
1075.56	484
1075.95	484.2
1076.34	474
1076.72	479.2
1077.11	486.4
1077.48	485
1077.88	483.8
1078.25	485.2
1078.64	488.8
1079.02	491.8
1079.41	491
1079.78	477.6
1080.18	473.6
1080.55	529
1080.95	484.6
1081.32	475.2
1081.72	478.6
1082.09	476.4
1082.49	476.6
1082.86	480.4
1083.24	476
1083.63	474.4
1084.01	479.8
1084.38	488.6
1084.78	476
1085.16	486.6
1085.55	490.2
1085.93	487.4
1086.31	476
1086.7	494.8
1087.08	476.2
1087.46	479.2
1087.83	469.2
1088.23	486.4
1088.61	479.6
1088.99	485.6
1089.36	469.2
1089.76	480.8
1090.14	483
1090.52	464.2
1090.9	473.8
1091.27	482.4
1091.67	494.4
1092.05	478.6
1092.43	475.4
1092.81	488.4
1093.19	493.2
1093.57	478.8
1093.95	479.6
1094.35	488.4
1094.73	492.6
1095.11	482.6
1095.49	479.4
1095.87	475.8
1096.25	492
1096.63	487
1097.01	483.6
1097.39	486.8
1097.77	484.4
1098.15	480.8
1098.53	474.4
1098.91	469.2
1099.29	482.8
1099.68	498.8
1100.06	484.2
1100.44	480.4
1100.82	487
1101.18	487.6
1101.56	474.2
1101.95	480.6
1102.33	482.2
1102.71	486.6
1103.1	480.4
1103.48	476.2
1103.86	476.2
1104.22	481.4
1104.61	476.6
1104.99	479.4
1105.38	471.2
1105.76	478.2
1106.12	482
1106.51	513.2
1106.89	488.6
1107.26	476.4
1107.64	488.6
1108.03	481
1108.41	475.8
1108.78	483.2
1109.16	475
1109.55	487.4
1109.91	472.6
1110.3	467
1110.69	484.6
1111.05	477
1111.44	472
1111.8	486
1112.19	485.4
1112.58	488
1112.94	477.8
1113.33	479.8
1113.7	466.8
1114.09	474.8
1114.45	483.4
1114.84	473.6
1115.21	486.6
1115.6	479
1115.96	478.6
1116.35	482.2
1116.72	479.8
1117.11	486.6
1117.48	482
1117.85	478.4
1118.24	491.2
1118.6	476.4
1118.99	480
1119.36	474.6
1119.73	487.6
1120.12	481.6
1120.49	467.4
1120.86	489.4
1121.25	480.8
1121.62	477.4
1121.99	475
1122.38	484.8
1122.76	477.6
1123.13	478
1123.5	486.8
1123.89	488.4
1124.26	481.8
1124.63	480.4
1125	485.2
1125.4	470.2
1125.77	475
1126.14	469.8
1126.51	480.6
1126.88	478.6
1127.26	482.6
1127.63	473.6
1128.02	476.2
1128.4	475.6
1128.77	482.4
1129.14	475.8
1129.52	471.8
1129.89	482.4
1130.26	475
1130.64	471.8
1131.01	479.4
