#lambda/nm	C1
208.295	467
208.67	429.8
209.045	395.4
209.419	394.2
209.794	529.2
210.169	514.2
210.544	609
210.919	531.6
211.295	517.2
211.67	525.8
212.045	532.6
212.421	526.6
212.796	555.8
213.172	518.2
213.547	517
213.923	532
214.299	526.2
214.675	529.6
215.051	535.2
215.427	533.4
215.803	540.4
216.179	534
216.555	523
216.932	530.2
217.308	529.4
217.684	530.8
218.061	528.4
218.438	531.4
218.814	524
219.191	532
219.568	524.6
219.945	522.2
220.322	534.8
220.699	531
221.076	538.6
221.453	534
221.83	523.6
222.208	517.2
222.585	522.2
222.962	525.8
223.34	532.6
223.717	523.8
224.095	518
224.473	523.8
224.851	527.8
225.229	522.6
225.607	540.8
225.985	525.2
226.363	519.8
226.741	526.8
227.119	527.6
227.497	534
227.876	520
228.254	533
228.633	529.4
229.011	535
229.39	538.2
229.769	523
230.148	533.2
230.527	546.4
230.905	532.8
231.284	524.6
231.664	532.6
232.043	543.2
232.422	534
232.801	533
233.181	532.6
233.56	535.4
233.94	534
234.319	516.8
234.699	524.2
235.079	559.2
235.458	556.2
235.838	540
236.218	513.4
236.598	522.2
236.978	526.2
237.358	525
237.738	523.4
238.119	537.6
238.499	517.2
238.88	522.6
239.26	537.6
239.641	514.4
240.021	525.8
240.402	515.6
240.783	520.6
241.163	524
241.544	530.6
241.925	530
242.306	538.8
242.687	524
243.069	524
243.45	535
243.831	525.4
244.212	526.2
244.594	555.8
244.975	530.8
245.357	534.2
245.739	526.4
246.12	528.4
246.502	536
246.884	526.4
247.266	521
247.648	527.6
248.03	539.6
248.412	527.2
248.794	537.2
249.176	528.2
249.559	533.2
249.941	516
250.323	518.8
250.706	527.6
251.089	528.4
251.471	534.2
251.854	528
252.237	527.4
252.62	537.2
253.002	527.2
253.385	529.4
253.769	545.2
254.152	532.8
254.535	536.2
254.918	518.6
255.301	529.6
255.685	525.2
256.068	524.2
256.452	551.8
256.835	535.4
257.219	533.4
257.603	532
257.986	524.6
258.37	533
258.754	520.2
259.138	537
259.522	532
259.906	527.6
260.29	534.8
260.675	527.4
261.059	528.2
261.443	528.8
261.828	527.8
262.212	533.2
262.597	523.8
262.981	520.4
263.366	525.6
263.751	531.4
264.136	519.6
264.521	521.2
264.906	519.2
265.291	532.2
265.676	519.6
266.061	527.2
266.446	541.4
266.831	532.6
267.217	539
267.602	528.8
267.987	528.8
268.373	517.6
268.759	538.2
269.144	528
269.53	531.8
269.916	523.4
270.302	514.4
270.688	530.8
271.074	525.4
271.46	530.4
271.846	553.4
272.232	528.8
272.618	528.4
273.004	526.4
273.391	544.4
273.777	544.4
274.164	531.8
274.55	544
274.937	531.8
275.324	520.6
275.71	530.4
276.097	533
276.484	526.2
276.871	524.8
277.258	527.8
277.645	518.2
278.032	522.6
278.419	520
278.807	524.4
279.194	526.2
279.581	515.8
279.969	535.4
280.356	528.6
280.744	526.2
281.131	549
281.519	536.8
281.907	525.4
282.295	525.6
282.682	535
283.07	536.2
283.458	531.2
283.846	536
284.235	541.2
284.623	538.4
285.011	517.8
285.399	529.4
285.788	523.4
286.176	517
286.565	531.6
286.953	529.4
287.342	531.2
287.731	524.4
288.119	527
288.508	524.6
288.897	517.4
289.286	519.8
289.675	529.2
290.064	535
290.453	525.8
290.821	528
291.21	537.6
291.599	528.2
291.989	535.4
292.378	529
292.768	543.2
293.157	543
293.547	536.4
293.936	523.4
294.326	524.6
294.716	527.8
295.106	525
295.496	530.8
295.886	532.2
296.276	530.4
296.666	521.2
297.056	526
297.446	524
297.836	541.4
298.227	524.8
298.617	529.4
299.008	538.4
299.398	524.8
299.789	524
300.179	529.8
300.57	543.2
300.961	524.4
301.352	528.2
301.742	531
302.133	535.2
302.524	528.8
302.915	526.4
303.307	517.2
303.698	534.2
304.089	529.6
304.48	528
304.872	529.2
305.263	535
305.655	513.6
306.046	538
306.438	531.4
306.829	519
307.221	541.2
307.613	527.8
308.005	532.8
308.397	533.4
308.789	538.2
309.181	548.6
309.573	532.4
309.965	536.6
310.357	519.4
310.749	543
311.142	521.2
311.534	525.6
311.926	530.6
312.319	523.6
312.711	523.6
313.104	537
313.497	529.2
313.889	554.6
314.282	541.6
314.675	540.6
315.068	525
315.461	535.8
315.854	556
316.247	532.6
316.64	520.2
317.033	529
317.405	533.2
317.798	524.2
318.192	535.6
318.585	527.8
318.979	533.2
319.372	524
319.766	530.2
320.16	533.4
320.553	533
320.947	539.6
321.341	534.2
321.735	526.6
322.129	521.4
322.523	541
322.917	517.2
323.311	533.6
323.705	524.4
324.099	531.8
324.494	537
324.888	526.8
325.282	518.8
325.677	547.4
326.071	525.2
326.466	535.2
326.861	531.6
327.255	533.6
327.65	534.2
328.045	532.8
328.44	533.6
328.835	529.8
329.23	522.8
329.625	542.8
330.02	523.4
330.415	543
330.81	533.8
331.206	530
331.601	520.8
331.996	539
332.37	544.4
332.766	518
333.161	543.6
333.557	526.6
333.953	523.8
334.348	699.6
334.744	525.6
335.14	523
335.536	526.4
335.932	536
336.328	527.6
336.724	535.2
337.12	525.8
337.516	530
337.913	529.6
338.309	535.8
338.705	526.2
339.102	536
339.498	529.8
339.895	538.2
340.291	523.6
340.688	536.4
341.085	514
341.481	523.4
341.878	520.6
342.275	545.2
342.672	517.2
343.069	525.2
343.466	521.8
343.842	525.6
344.239	520.4
344.636	530
345.033	525.6
345.431	517
345.828	521.4
346.225	516
346.623	556.2
347.02	524.4
347.418	532.4
347.816	536.8
348.213	516.8
348.611	528.4
349.009	527
349.407	543.8
349.805	514
350.203	521
350.601	532.6
350.999	528.2
351.397	572.4
351.795	528.6
352.193	535
352.57	529.6
352.969	529.8
353.367	522.4
353.766	516.8
354.164	521
354.563	533.8
354.961	521.2
355.36	524
355.759	529.6
356.158	522.4
356.557	519
356.956	514.6
357.355	514
357.754	527
358.153	528
358.552	538.2
358.951	526.6
359.35	532.2
359.75	516.8
360.149	521.6
360.527	504.8
360.926	522.2
361.326	525
361.726	510.8
362.125	509
362.525	520
362.925	511.6
363.325	517.4
363.724	528.6
364.124	515.6
364.524	509.6
364.924	522.2
365.324	529.6
365.725	513
366.125	527.6
366.525	514.4
366.904	515.2
367.304	509.2
367.705	535.2
368.105	529.2
368.506	523.8
368.906	527.6
369.307	522.6
369.708	523.4
370.108	511.6
370.509	532.2
370.91	514.6
371.311	514.8
371.712	525.8
372.113	520.6
372.514	503.6
372.894	517.8
373.295	517.2
373.696	530.6
374.097	528.4
374.499	544.2
374.9	519.8
375.301	516
375.703	516.6
376.105	516.4
376.506	522.4
376.908	520.8
377.309	520.2
377.711	524.8
378.113	505.8
378.493	521
378.895	516.6
379.297	532.8
379.699	505.8
380.102	526.2
380.504	528
380.906	522.6
381.308	534.4
381.71	511.2
382.113	529.8
382.515	519
382.918	521.6
383.299	525.4
383.701	519.8
384.104	520.2
384.507	503.8
384.909	517.8
385.312	516
385.715	516.6
386.118	518
386.521	513.6
386.924	527.8
387.327	516
387.709	507.4
388.112	505.4
388.515	513.8
388.918	515
389.322	518
389.725	519.6
390.129	543
390.532	524.6
390.936	519.4
391.339	505.4
391.743	516.4
392.125	515.8
392.529	528.2
392.933	534
393.337	520.4
393.74	519.4
394.144	514.4
394.548	519.6
394.953	515.4
395.357	526.8
395.761	520.8
396.144	517.6
396.548	519.2
396.952	524.6
397.357	515.8
397.761	520.4
398.166	519.4
398.57	520.4
398.975	507.8
399.379	517
399.763	554
400.168	516.4
400.572	514
400.977	520
401.382	537.2
401.787	528.4
402.192	529.8
402.597	538.4
403.002	514.2
403.386	527.6
403.791	531.8
404.197	512.4
404.602	517
405.007	516.8
405.413	508.8
405.818	513.4
406.224	513
406.608	514
407.014	505
407.42	533.6
407.825	512.4
408.231	526.4
408.637	519.6
409.043	528.4
409.449	511.8
409.834	525
410.24	518.8
410.646	525
411.052	528
411.458	521.4
411.865	529.6
412.271	526.8
412.677	532.2
413.062	529
413.469	506.4
413.875	538.4
414.282	528.6
414.689	527.2
415.095	519
415.502	512.6
415.888	516.2
416.294	502
416.701	554.6
417.108	514.2
417.515	523.2
417.923	517.6
418.33	530.6
418.715	528.8
419.123	519.4
419.53	520.6
419.937	524.8
420.345	535
420.752	517.6
421.16	529
421.546	520.6
421.953	523.4
422.361	522.8
422.769	522.4
423.177	514
423.585	544.6
423.992	541.8
424.379	525.4
424.787	526.2
425.195	535.8
425.603	521.8
426.011	521.6
426.419	532.6
426.806	528.4
427.214	512.2
427.623	528.2
428.031	534.4
428.44	529.4
428.848	529.4
429.235	533
429.644	526
430.053	527.6
430.461	547.8
430.87	553.2
431.279	554.2
431.666	541.2
432.075	551.6
432.484	558.8
432.893	567.8
433.302	590
433.711	621.4
434.099	609.8
434.508	615.8
434.918	631.6
435.327	652.6
435.737	677.2
436.125	680
436.534	701.8
436.944	714.8
437.353	734.2
437.763	767.2
438.173	757.8
438.561	793.6
438.971	790.2
439.381	818.4
439.791	840.4
440.201	849.2
440.589	876
440.999	904.4
441.409	910.6
441.819	908.6
442.23	955.6
442.619	940.8
443.029	963.6
443.439	970.6
443.85	980.4
444.26	1005.4
444.649	1026.6
445.06	1023.6
445.471	1030.2
445.881	1051.4
446.292	1057.2
446.682	1088.6
447.092	1066.6
447.503	1117.2
447.914	1079.6
448.325	1099.4
448.715	1087.6
449.126	1109.6
449.537	1099.4
449.948	1116.4
450.338	1130.8
450.75	1133
451.161	1136.2
451.572	1148.2
451.984	1138
452.374	1141.8
452.786	1149.8
453.197	1151.4
453.609	1141
453.999	1128.6
454.411	1139.8
454.823	1151.2
455.235	1174.2
455.647	1160.6
456.037	1167.8
456.449	1155.6
456.862	1162.4
457.274	1152.2
457.665	1153.2
458.077	1162.8
458.489	1191.2
458.902	1165.4
459.293	1170.4
459.705	1153.8
460.118	1165.8
460.53	1181.6
460.921	1172.2
461.334	1186.8
461.747	1173.2
462.16	1185
462.551	1201.4
462.964	1181.8
463.377	1186.6
463.79	1184.2
464.182	1205
464.595	1173.2
465.008	1185.4
465.421	1183.2
465.813	1178.4
466.226	1190.4
466.64	1196.4
467.053	1241
467.445	1206
467.859	1214
468.272	1204.4
468.686	1199
469.078	1198.6
469.492	1177.6
469.906	1187
470.298	1200.2
470.712	1198.4
471.126	1213.6
471.54	1193.4
471.933	1194.8
472.347	1192.2
472.761	1174.8
473.175	1174.6
473.568	1178.6
473.982	1165.2
474.397	1178
474.79	1182.8
475.204	1164.2
475.619	1176
476.033	1177.8
476.426	1170.6
476.841	1151.8
477.256	1182.2
477.649	1148.6
478.064	1144.6
478.479	1135.6
478.872	1146.8
479.287	1132
479.702	1138.2
480.118	1140
480.511	1133.8
480.927	1129.8
481.342	1124.8
481.736	1131.2
482.151	1124.8
482.566	1123.2
482.96	1115.4
483.376	1130
483.792	1100.4
484.186	1114.4
484.602	1102.2
485.017	1103.2
485.412	1098.4
485.827	1093.4
486.243	1096.6
486.638	1121
487.054	1079.8
487.47	1095.8
487.865	1077
488.281	1076.8
488.697	1053.6
489.092	1062.6
489.508	1061.2
489.925	1058.6
490.32	1044.6
490.736	1058.8
491.153	1052
491.548	1052
491.964	1055.2
492.381	1032.6
492.776	1039.2
493.193	1029
493.61	1022.6
494.006	1017.6
494.422	1021.8
494.84	1014.6
495.235	1024.4
495.652	1011.8
496.069	996.4
496.465	984.6
496.883	992.2
497.3	1002.2
497.696	966.8
498.113	993.6
498.509	964.6
498.927	947.8
499.344	951
499.741	952.4
500.158	960
500.576	958.6
500.973	940
501.39	933.4
501.787	937
502.205	931
502.623	924.8
503.02	924.8
503.438	926.4
503.856	915.4
504.253	911.6
504.671	910.6
505.068	904
505.486	905
505.905	912.4
506.302	896
506.72	890.8
507.118	879
507.536	882.2
507.955	872.8
508.352	878.4
508.771	878.2
509.169	866.4
509.587	856
510.006	856
510.404	834.4
510.823	846.8
511.221	852.4
511.64	866.6
512.038	853.2
512.457	833.6
512.877	836.2
513.275	842.6
513.694	831.8
514.092	827.8
514.512	828.8
514.91	825.6
515.33	824.6
515.749	814
516.148	810.4
516.568	812.4
516.966	806.6
517.386	798.8
517.785	793.6
518.205	790.6
518.603	781.4
519.024	788.2
519.444	784.2
519.843	795.8
520.263	789.4
520.662	778
521.082	775.6
521.481	772.4
521.902	769.2
522.301	766.2
522.722	763
523.121	750.6
523.542	745.8
523.963	736.8
524.362	755.4
524.783	749.8
525.183	750
525.604	753
526.003	737.8
526.425	732
526.824	745.4
527.246	735.4
527.646	731.4
528.067	727
528.467	729.4
528.888	732.4
529.289	716.6
529.71	730.6
530.11	714
530.532	707.4
530.932	709.8
531.354	705.2
531.755	732.4
532.176	714.6
532.577	704.6
532.999	693.2
533.4	700.6
533.822	703.8
534.223	705
534.645	694
535.046	689.6
535.468	687.4
535.869	694
536.292	683.8
536.693	707.2
537.115	687.4
537.516	676
537.939	676.4
538.34	676.2
538.742	684.6
539.165	672.4
539.566	669.8
539.989	665.4
540.391	661.6
540.814	678.2
541.216	665.8
541.639	658.8
542.041	664.6
542.464	662.2
542.866	658.4
543.268	651.4
543.691	668.2
544.093	658.6
544.517	668.6
544.919	639.8
545.343	667
545.745	639
546.147	644.4
546.571	650
546.974	632.4
547.398	645.6
547.8	648.6
548.224	635
548.627	631.6
549.03	644
549.454	627.6
549.857	626.2
550.281	628.2
550.684	629.6
551.087	640.8
551.512	631.8
551.915	628
552.34	621.4
552.743	626.6
553.146	620
553.571	627.8
553.975	626.4
554.399	604.2
554.803	648.2
555.207	601.2
555.632	603.2
556.036	610.6
556.461	602
556.865	609.8
557.268	605
557.694	596.4
558.098	596.8
558.502	609.8
558.927	591.8
559.332	598
559.736	594.6
560.162	595
560.566	591.4
560.992	600.8
561.396	591.2
561.801	592
562.227	592
562.631	590.2
563.036	590
563.462	587.4
563.867	590.8
564.272	581.6
564.698	587
565.103	582
565.508	596.2
565.935	585
566.34	580
566.745	589.4
567.172	582.6
567.577	592.2
567.982	590
568.409	592.8
568.815	564.8
569.22	577.8
569.626	585.6
570.053	571.4
570.459	571.2
570.865	575.6
571.292	581.4
571.698	571.6
572.104	566.4
572.531	569.8
572.937	574
573.343	567.2
573.75	564.4
574.177	564.2
574.583	568.4
574.99	567.2
575.396	574.4
575.824	559.4
576.231	571
576.637	556.6
577.065	584.6
577.472	557.2
577.879	562
578.286	567
578.714	558
579.121	547.8
579.528	562
579.935	563
580.364	555.8
580.771	542.4
581.178	553.8
581.585	552.2
582.014	556.6
582.421	550.4
582.829	552.6
583.236	563.8
583.644	549.2
584.073	551.2
584.481	553
584.889	545
585.296	553.6
585.726	550
586.134	538.8
586.542	542.6
586.95	555.6
587.358	543.2
587.787	549.6
588.196	543.4
588.604	553.2
589.012	539.8
589.421	541.6
589.851	540
590.259	545.4
590.668	538.4
591.076	575.4
591.485	533
591.894	547.6
592.324	542.2
592.733	544.4
593.142	529.2
593.551	529
593.96	569.4
594.369	529.6
594.8	538.8
595.209	528.6
595.618	521.4
596.028	527.8
596.437	520.2
596.847	529.2
597.256	533.8
597.687	539.8
598.097	524.4
598.507	519.4
598.917	527
599.327	530.8
599.736	530.8
600.146	528.4
600.556	526.6
600.988	531
601.398	527
601.808	538.4
602.219	524
602.629	531.4
603.039	525.4
603.45	550.4
603.86	532.8
604.271	539.2
604.703	528
605.114	524
605.525	524.2
605.935	523.4
606.346	541.6
606.757	518.4
607.168	520.4
607.579	518.4
607.99	528.6
608.402	515
608.813	524.6
609.224	527
609.636	510
610.047	515.8
610.48	514.8
610.892	527.4
611.303	534.8
611.715	515.4
612.127	513.6
612.539	518.8
612.95	524.8
613.362	521.2
613.774	511.4
614.186	515
614.599	522.4
615.011	523.8
615.423	516.6
615.835	511.6
616.248	512.8
616.66	521.2
617.073	515.8
617.485	515.4
617.898	517.2
618.311	517.2
618.723	520.8
619.136	541.8
619.549	525
619.962	537
620.375	517.2
620.788	519.6
621.201	518
621.614	520.4
622.028	514.4
622.441	525.2
622.854	527.4
623.268	514.4
623.681	527.6
624.095	514.8
624.509	517.8
624.922	521.6
625.336	511.4
625.728	520.6
626.142	524.2
626.556	532.4
626.97	516
627.384	520.4
627.799	520.4
628.213	519.2
628.627	510.2
629.041	513
629.456	513.8
629.87	515.8
630.285	508.6
630.699	516.4
631.093	515.8
631.507	517
631.922	513.8
632.337	517
632.752	505.4
633.167	504.2
633.582	513.8
633.997	513.4
634.412	516.8
634.806	516.2
635.221	505.8
635.637	519.4
636.052	503.8
636.468	512.6
636.883	534.6
637.299	508.6
637.715	498.6
638.109	506
638.525	505
638.941	521
639.357	512.2
639.773	522.6
640.189	503.2
640.584	508.6
641	519
641.416	496
641.832	506.4
642.249	508.6
642.665	509.6
643.06	508.6
643.477	513.4
643.894	507.4
644.31	507.2
644.727	519.8
645.123	509.6
645.54	504.6
645.957	510.2
646.374	516.2
646.77	506.6
647.187	530.8
647.604	513.4
648.021	502
648.439	511
648.835	507.2
649.252	510
649.67	510
650.088	514
650.484	511
650.902	501.6
651.32	505.6
651.738	498.6
652.134	497.6
652.552	521.4
652.971	506.6
653.389	494
653.786	506.6
654.204	509.6
654.622	493.6
655.019	508.2
655.438	511.4
655.857	507.4
656.275	511
656.673	502
657.091	507.6
657.51	499.4
657.908	511.6
658.327	517.6
658.746	491
659.144	504.2
659.563	513.4
659.982	505.4
660.38	498.4
660.8	509.2
661.219	511.6
661.617	505.4
662.037	506.8
662.457	514.2
662.855	495.8
663.275	525.2
663.695	507.8
664.094	499.6
664.514	505.8
664.934	502
665.333	510.8
665.753	506.6
666.152	493.4
666.572	501.4
666.993	509.6
667.392	498.6
667.812	507
668.212	509.4
668.632	513.8
669.053	500
669.453	501.8
669.874	503
670.273	506.6
670.694	499.4
671.116	516
671.515	510
671.937	495.4
672.337	500.4
672.758	496
673.158	502.8
673.58	491.4
673.98	502.6
674.402	508
674.824	494.4
675.224	499.6
675.646	492
676.047	500.4
676.469	500.8
676.869	504.6
677.292	506.6
677.693	501.8
678.115	496.6
678.516	507.6
678.939	502
679.34	498.2
679.762	503.2
680.164	510.2
680.586	499.6
680.988	504
681.411	521.6
681.812	503.6
682.236	493
682.637	493.4
683.061	489.4
683.462	502.4
683.864	497.6
684.288	505.2
684.69	489.2
685.114	505.2
685.516	504.6
685.94	492.2
686.342	499.8
686.766	490.8
687.168	498.8
687.571	517.8
687.995	500.2
688.398	493
688.822	497.8
689.225	512.8
689.628	515.8
690.052	499.4
690.456	512.2
690.88	508.2
691.284	493.6
691.687	506
692.112	497.8
692.515	492.6
692.919	497
693.344	496.6
693.747	506
694.173	487.2
694.577	502
694.98	503.8
695.406	501.6
695.81	502.6
696.214	499.8
696.64	502.2
697.044	500.8
697.448	498.6
697.874	489
698.279	494.2
698.684	489.2
699.11	488.8
699.514	494.2
699.919	501.6
700.324	499
700.75	492.6
701.156	503.8
701.561	504.8
701.987	498
702.393	507
702.798	510.8
703.203	490.6
703.63	494.4
704.036	499.6
704.442	492
704.847	488.6
705.274	492.4
705.68	500
706.086	502
706.492	490.2
706.92	498.6
707.326	502.6
707.732	492.6
708.139	487.2
708.545	487.2
708.973	494.8
709.38	498.6
709.786	486.6
710.193	505.6
710.6	498.6
711.028	497.4
711.435	491.6
711.842	492.2
712.249	497.8
712.656	497
713.064	501.8
713.492	485
713.9	493.6
714.307	492.6
714.715	491.6
715.123	494.2
715.53	500.8
715.938	506.6
716.367	496.6
716.775	496.8
717.184	485.4
717.592	500
718	502.2
718.408	526.2
718.816	524.2
719.225	501.4
719.633	495.6
720.042	491.8
720.472	491.2
720.881	510
721.29	500.2
721.699	482.2
722.108	497.4
722.517	504.8
722.926	496.6
723.335	502.4
723.744	502.2
724.154	493.2
724.563	497.6
724.973	498.8
725.382	499.6
725.792	497.2
726.202	487.4
726.612	500.8
727.022	500.6
727.432	487
779.813	497.2
780.223	528.6
780.634	493
781.044	489.2
781.454	494.2
781.865	507.2
782.276	489.2
782.686	497.6
783.097	492.2
783.508	492.8
783.919	493.4
784.33	505.6
784.741	503.2
785.152	494.4
785.563	485.2
785.974	485
786.386	500.8
786.776	495
787.188	491.6
787.599	491.2
788.011	489.6
788.423	503
788.835	490.6
789.247	495.6
789.659	492.8
790.071	487.6
790.483	524.2
790.874	489.8
791.286	498.8
791.699	497.6
792.111	491.8
792.524	485.4
792.937	497.2
793.349	490
793.741	482
794.154	493.6
794.567	507.4
794.98	490.4
795.393	482.2
795.785	507.2
796.198	496
796.612	500.2
797.026	490.8
797.439	484.8
797.831	493.4
798.245	489.8
798.659	485.2
799.073	489.6
799.487	492.2
799.88	490.6
800.294	490.8
800.708	501.4
801.123	487.8
801.516	503
801.93	476.2
802.345	479.2
802.76	487.8
803.153	508.4
803.568	499.8
803.983	493.6
804.377	490.2
804.792	485.8
805.207	486.6
805.601	487.8
806.016	511.6
806.432	484.6
806.826	512.8
807.242	508.6
807.658	490.8
808.052	486.8
808.468	494.4
808.884	488.4
809.279	495
809.695	502.2
810.111	510.2
810.506	495.4
810.922	508.2
811.339	490.2
811.734	502.2
812.151	492.8
812.546	485.4
812.963	487
813.38	496
813.776	492.6
814.193	514.8
814.589	488.6
815.006	491.6
815.402	488.4
815.82	488.4
816.237	485.6
816.633	493.4
817.051	486.4
817.448	493.2
817.866	479
818.262	511.8
818.68	487.2
819.077	489.6
819.495	501.4
819.892	532
820.311	495.8
820.708	490.2
821.127	489.4
821.524	502.4
821.943	495.6
822.34	504.4
822.759	490.4
823.157	493.4
823.576	503.8
823.974	498
824.393	577.6
824.791	490.6
825.189	483.2
825.609	494
826.007	496.4
826.427	485
826.826	499.4
827.246	504.4
827.644	481.4
828.043	506.2
828.463	489
828.862	497.6
829.261	506.6
829.682	483
830.081	488.6
830.502	489.4
830.901	493
831.301	482.2
831.722	485
832.121	498.8
832.521	486
832.943	482.4
833.342	491.4
833.742	489.4
834.164	491.2
834.564	485.4
834.965	485
835.386	494.2
835.787	491.8
836.188	490.4
836.588	496.4
837.01	491.8
837.411	490.8
837.812	506.6
838.213	489.2
838.636	492.4
839.037	549.6
839.438	493.8
839.84	491.8
840.263	494.2
840.664	489.6
841.066	485.4
841.468	486
841.891	498.2
842.293	494
842.695	490.8
843.098	502
843.5	489.2
843.902	492.8
844.326	490.8
844.729	491.2
845.131	497.6
845.534	494.8
845.937	499.4
846.34	503.8
846.764	493.8
847.167	489.2
847.571	483.4
847.974	486.6
848.377	482.2
848.781	525.8
849.184	502.8
849.588	480
849.992	484.4
850.396	489.6
850.821	505.2
851.225	492
851.63	494.6
852.034	496.2
852.438	484.6
852.843	510
853.247	493.2
853.652	487.8
854.057	504.4
854.462	489.6
854.867	485.8
855.272	512
855.677	491.6
856.082	487.8
856.487	476.2
856.893	488.6
857.298	489.2
857.704	493.2
858.11	490
858.516	490.2
858.922	483
859.328	495.8
859.734	490.6
860.14	493.6
860.525	497.6
860.931	487.6
861.338	487.4
861.745	491
862.151	494.6
862.558	487
862.965	481.4
863.372	482.4
863.779	486.2
864.186	504
864.572	499
864.98	496
865.387	516.2
865.795	482.6
866.203	497.2
866.61	483.6
867.018	499
867.405	492.6
867.813	491.6
868.221	489.4
868.63	489.4
869.038	497
869.425	520
869.834	484
870.243	483.2
870.652	481.6
871.039	487.6
871.448	494
871.857	491.8
872.266	490.4
872.654	492
873.064	482.2
873.473	496
873.883	479.4
874.271	482.4
874.681	494.2
875.091	476.6
875.48	494.2
875.89	509.6
876.3	491
876.689	480.6
877.1	488
877.51	485.2
877.9	506
878.31	488.4
878.721	523.2
879.111	495.2
879.522	486.2
879.933	490.8
880.323	483.8
880.734	480.2
881.125	492.2
881.536	493.4
881.948	490.2
882.338	483.6
882.75	493.2
883.141	490
883.553	490
883.944	512.4
884.356	496.6
884.769	496.8
885.16	489.8
885.573	504.4
885.964	485.2
886.377	488
886.768	487.8
887.181	490.4
887.573	489.8
887.987	495.6
888.378	498.4
888.792	494
889.184	520.6
889.598	485.8
889.99	494
890.383	486.6
890.797	485.2
891.19	490.2
891.604	486.6
891.997	473.2
892.411	486.4
892.805	473.6
893.198	483.2
893.613	483.6
894.006	488.4
894.421	486.4
894.815	479.2
895.209	487.8
895.624	515.2
896.018	497.8
896.412	470.6
896.828	480.4
897.222	488
897.617	484.6
898.033	498.6
898.427	483.8
898.822	482.6
899.239	485.2
899.634	480.6
900.029	497.6
900.424	479.6
900.841	478.8
901.236	495.4
901.632	487.4
902.027	529.6
902.445	494.8
902.841	491.8
903.237	487
903.633	504.6
904.05	490.6
904.447	496.8
904.843	491.4
905.24	481.6
905.636	485.2
906.033	482.4
906.451	503.6
906.848	485.6
907.246	490.2
907.643	489.8
908.04	488.8
908.438	503
908.835	481.6
909.254	495.2
909.652	496.8
910.05	486.4
910.448	480.2
910.846	494
911.244	478.8
911.643	494
912.041	484
912.44	492.8
912.839	481.6
913.237	484.2
913.636	482.4
914.035	493.6
914.434	484.6
914.834	499.4
915.233	494.8
915.633	482
916.032	481.4
916.432	484
916.832	500
917.232	479.2
917.632	481.4
918.032	488.2
918.432	487.4
918.833	486.8
919.233	486.6
919.634	475.8
920.035	490
920.436	491.6
920.837	485.6
921.238	473.6
921.639	482.8
922.019	490.2
922.42	489.8
922.822	487.6
923.224	490.6
923.625	485.4
924.027	485.8
924.429	506.2
924.81	496.2
925.212	496.6
925.615	487.6
926.017	485.6
926.42	495.2
926.801	487.8
927.204	491.8
927.607	490.2
928.01	500.2
928.413	486.8
928.795	490.4
929.199	487.4
929.602	491.2
930.006	486
930.388	475.8
930.792	486.8
931.196	490.2
931.579	517
931.983	477.4
932.388	516.2
932.771	485.6
933.176	477.4
933.58	482.4
933.964	492.4
934.369	480
934.774	494.6
935.158	484.8
935.563	481
935.947	482.2
936.353	485
936.759	486
937.143	493.2
937.549	489.2
937.934	494.8
938.34	505.2
938.746	478.4
939.131	482.2
939.538	482.6
939.923	495
940.33	479
940.716	486.2
941.123	498.2
941.508	491.6
941.916	499
942.302	486.8
942.709	481.8
943.096	484.6
943.503	485.2
943.89	480.4
944.298	485.6
944.685	499.2
945.072	477.6
945.48	494.4
945.867	482.6
946.276	481.2
946.663	496
947.051	498.8
947.46	490.8
947.848	486.6
948.257	484
948.645	485.4
949.033	478.6
949.443	478.6
949.831	508.4
950.22	480.6
950.63	493
951.018	506.8
951.407	481.8
951.796	482.6
952.207	489.6
952.596	491.8
952.985	481
953.375	515.6
953.786	483.4
954.176	476.6
954.566	488.8
954.956	475.8
955.367	485.6
955.758	498.4
956.148	471
956.539	495
956.929	475.8
957.341	475.6
957.732	475.2
958.123	492
958.515	471
958.906	486.8
959.297	472
959.689	481.4
960.102	471
960.494	487
960.886	487.6
961.278	485.2
961.67	503
962.062	513
962.455	487.6
962.847	475.2
963.24	478
963.633	484.2
964.026	479.2
964.419	473
964.812	497.6
965.206	480.8
965.599	488.4
965.993	483.2
966.386	481.2
966.78	491.2
967.174	492.2
967.569	481.2
967.963	481.4
968.357	475.6
968.752	483.4
969.146	481.6
969.541	481
969.936	477.2
970.331	482.2
970.705	475.2
971.1	486.2
971.496	493.4
971.892	478.6
972.287	475
972.683	481.4
973.079	481.4
973.454	492.2
973.85	491.6
974.247	483.4
974.643	509.8
975.04	490.2
975.415	481.4
975.812	478.4
976.209	491.8
976.607	471.4
976.982	490.8
977.38	501.4
977.778	484
978.175	484.8
978.552	485.6
978.95	490
979.348	492.6
979.725	522.4
980.123	488.2
980.522	489
980.899	483.8
981.298	474
981.697	488.4
982.075	485.6
982.474	475.2
982.852	483.8
983.251	492
983.651	483.6
984.029	487.4
984.429	486.6
984.808	474.8
985.208	481.6
985.609	480.4
985.987	470.2
986.388	482.2
986.768	497.2
987.168	478.8
987.548	485.6
987.949	487.2
988.329	485.8
988.731	472.8
989.111	477.4
989.491	476
989.893	481.6
990.273	488.8
990.676	471.8
991.057	472.8
991.459	473.4
991.84	474.4
992.221	474.6
992.624	495.8
993.006	480.2
993.388	478.8
993.791	488.2
994.173	490
994.576	507.4
994.959	474.6
995.341	484
995.724	489.6
996.128	486.4
996.511	483.4
996.894	473.8
997.298	480.4
997.681	484.4
998.065	481.4
998.448	480.4
998.854	482.4
999.237	480.8
999.621	494
1000.01	490.6
1000.39	490.2
1000.8	486.8
1001.18	490
1001.56	489.2
1001.95	484
1002.33	486.8
1002.72	483.6
1003.13	486.8
1003.51	480.6
1003.9	483.8
1004.28	494.6
1004.67	476.6
1005.06	480
1005.44	502.6
1005.83	480.2
1006.21	485.6
1006.6	475.8
1006.99	484.2
1007.37	493
1007.76	478
1060.12	480
1060.51	478.4
1060.89	493
1061.28	487.4
1061.67	491.2
1062.06	492.2
1062.45	480.6
1062.83	482.8
1063.22	488.6
1063.61	525.6
1064	494.8
1064.39	480.8
1064.78	485.8
1065.14	492.6
1065.53	482.8
1065.92	474
1066.31	476.2
1066.7	490
1067.09	499.8
1067.46	490
1067.85	487.2
1068.24	472.4
1068.63	489
1069.02	473.4
1069.39	484.4
1069.78	479
1070.17	485
1070.57	481.2
1070.93	488.8
1071.33	482.4
1071.72	486.2
1072.11	483
1072.48	485.2
1072.87	483.2
1073.26	488.2
1073.64	475.6
1074.03	470.4
1074.4	480.2
1074.79	482.6
1075.19	484.4
1075.56	485.6
1075.95	482.8
1076.34	483
1076.72	481.8
1077.11	486.8
1077.48	496.6
1077.88	482.8
1078.25	479.6
1078.64	488.4
1079.02	480
1079.41	479
1079.78	483.4
1080.18	472.2
1080.55	531.8
1080.95	474.4
1081.32	480.8
1081.72	486.2
1082.09	476.2
1082.49	479.6
1082.86	479
1083.24	477
1083.63	474.4
1084.01	479.4
1084.38	490.4
1084.78	475.4
1085.16	485.8
1085.55	486.6
1085.93	491.8
1086.31	476.6
1086.7	504
1087.08	484.4
1087.46	483.8
1087.83	478.2
1088.23	486.6
1088.61	481
1088.99	480.6
1089.36	480.6
1089.76	484.4
1090.14	485
1090.52	478.8
1090.9	476.2
1091.27	488.2
1091.67	502.6
1092.05	480.2
1092.43	473.8
1092.81	490
1093.19	485.4
1093.57	480.8
1093.95	475.2
1094.35	490.6
1094.73	486.2
1095.11	473.8
1095.49	477.6
1095.87	482
1096.25	485.8
1096.63	485.8
1097.01	480.8
1097.39	489.6
1097.77	478.8
1098.15	478.6
1098.53	473.8
1098.91	473.6
1099.29	478.8
1099.68	490
1100.06	485.6
1100.44	483.2
1100.82	475
1101.18	480.8
1101.56	479.8
1101.95	481.8
1102.33	482.4
1102.71	477.2
1103.1	470.4
1103.48	473.2
1103.86	472.2
1104.22	487.6
1104.61	478.6
1104.99	480.8
1105.38	475.6
1105.76	483
1106.12	490.4
1106.51	505
1106.89	483.4
1107.26	483.6
1107.64	495
1108.03	477.6
1108.41	479.4
1108.78	485.8
1109.16	478.8
1109.55	491.2
1109.91	473.8
1110.3	468.2
1110.69	490.6
1111.05	473.2
1111.44	481.4
1111.8	478.8
1112.19	487.8
1112.58	478.2
1112.94	472.2
1113.33	476
1113.7	482.2
1114.09	481.8
1114.45	472.6
1114.84	477.6
1115.21	485.6
1115.6	472
1115.96	488.2
1116.35	484.2
1116.72	475.8
1117.11	495.2
1117.48	478.4
1117.85	476.8
1118.24	486.6
1118.6	479.4
1118.99	476.6
1119.36	484.4
1119.73	483.8
1120.12	481.4
1120.49	469.8
1120.86	481.8
1121.25	476.4
1121.62	477.6
1121.99	483.4
1122.38	493
1122.76	483.6
1123.13	477
1123.5	483
1123.89	490.2
1124.26	466
1124.63	483.8
1125	480.4
1125.4	476.2
1125.77	479.2
1126.14	470.2
1126.51	482.6
1126.88	486.8
1127.26	475.8
1127.63	470.2
1128.02	477.2
1128.4	483.2
1128.77	479.2
1129.14	481
1129.52	481
1129.89	474.2
1130.26	474.6
1130.64	471.2
1131.01	466.8
