#lambda/nm	C1
208.295	467
208.67	432.8
209.045	395.8
209.419	395.6
209.794	536
210.169	528.6
210.544	617.8
210.919	528.4
211.295	518.8
211.67	529.2
212.045	520.6
212.421	526.8
212.796	555.6
213.172	516.4
213.547	522.4
213.923	519.4
214.299	519.2
214.675	526.8
215.051	529
215.427	530.2
215.803	541.4
216.179	535.6
216.555	521.4
216.932	535.2
217.308	529.6
217.684	528.6
218.061	535.8
218.438	532.8
218.814	518.8
219.191	529.8
219.568	518.6
219.945	522.4
220.322	536
220.699	530.8
221.076	532
221.453	532.2
221.83	525.2
222.208	527.2
222.585	522
222.962	525.6
223.34	525.4
223.717	526
224.095	525.6
224.473	531.6
224.851	517.4
225.229	522.4
225.607	538.4
225.985	519.4
226.363	523.8
226.741	533.2
227.119	526.2
227.497	537.6
227.876	518.2
228.254	537.4
228.633	530.8
229.011	527.8
229.39	537.2
229.769	534.6
230.148	538
230.527	547.6
230.905	533.2
231.284	532
231.664	527.2
232.043	543.4
232.422	539.6
232.801	528.8
233.181	540.4
233.56	526.8
233.94	528.2
234.319	516.2
234.699	527.8
235.079	565.4
235.458	562
235.838	539.6
236.218	521.8
236.598	526.8
236.978	518
237.358	524.8
237.738	516.2
238.119	535
238.499	529.4
238.88	528.8
239.26	544.4
239.641	523.6
240.021	534
240.402	523.6
240.783	528
241.163	527.4
241.544	519
241.925	526.2
242.306	538.6
242.687	526.2
243.069	527.8
243.45	532.2
243.831	521
244.212	521.8
244.594	558
244.975	535.6
245.357	530.4
245.739	520
246.12	534.6
246.502	537.6
246.884	532
247.266	523.6
247.648	525.6
248.03	552.2
248.412	524.4
248.794	534.4
249.176	520.6
249.559	537.4
249.941	526.4
250.323	524.6
250.706	530.4
251.089	522.6
251.471	534.4
251.854	537.2
252.237	533.4
252.62	537.6
253.002	533.2
253.385	538
253.769	539
254.152	529.4
254.535	535.8
254.918	520.8
255.301	527.8
255.685	527.2
256.068	524.4
256.452	543.2
256.835	535.6
257.219	526.8
257.603	538.4
257.986	522.8
258.37	534.6
258.754	519.6
259.138	535.4
259.522	536.6
259.906	526.6
260.29	537.8
260.675	523.4
261.059	529
261.443	519
261.828	529.2
262.212	530.8
262.597	526.6
262.981	528.6
263.366	539.4
263.751	521.4
264.136	524.8
264.521	525
264.906	526.4
265.291	540
265.676	527
266.061	524
266.446	549
266.831	530.2
267.217	545.8
267.602	528.4
267.987	538
268.373	520.8
268.759	534.6
269.144	534.8
269.53	535
269.916	537.4
270.302	522
270.688	531.2
271.074	531.6
271.46	544.6
271.846	550.4
272.232	524.8
272.618	525.8
273.004	531.4
273.391	533
273.777	527.8
274.164	533.6
274.55	536.2
274.937	528.2
275.324	521.4
275.71	536.6
276.097	538
276.484	519.8
276.871	525.6
277.258	532.4
277.645	517.8
278.032	519
278.419	527
278.807	536.6
279.194	522.4
279.581	507.8
279.969	531.6
280.356	523.8
280.744	527.8
281.131	554.2
281.519	534.2
281.907	519.2
282.295	523.2
282.682	540.4
283.07	528
283.458	536.8
283.846	536.2
284.235	535.2
284.623	529
285.011	520
285.399	530.6
285.788	527.8
286.176	519.2
286.565	542.8
286.953	527
287.342	528.2
287.731	523.4
288.119	520.6
288.508	525.6
288.897	530.8
289.286	521.8
289.675	531
290.064	535.8
290.453	525
290.821	523.8
291.21	540.2
291.599	521.4
291.989	531.2
292.378	529.8
292.768	546.6
293.157	529.4
293.547	536
293.936	520.8
294.326	527.6
294.716	526.6
295.106	522.8
295.496	531.4
295.886	534.6
296.276	525.2
296.666	516.6
297.056	522
297.446	509.8
297.836	547.4
298.227	529.2
298.617	532.4
299.008	539.2
299.398	532.2
299.789	527.6
300.179	526.8
300.57	538
300.961	522.4
301.352	521.6
301.742	533.6
302.133	527.6
302.524	528
302.915	519.8
303.307	524
303.698	538.8
304.089	539.2
304.48	522.6
304.872	530.6
305.263	529.4
305.655	523.4
306.046	539
306.438	535.2
306.829	521
307.221	537.8
307.613	530.8
308.005	538.6
308.397	534.4
308.789	545.8
309.181	549.2
309.573	534
309.965	542.2
310.357	519.8
310.749	536.6
311.142	523.2
311.534	524.4
311.926	531.4
312.319	534
312.711	519
313.104	543
313.497	525
313.889	554
314.282	540.4
314.675	551.4
315.068	533.2
315.461	534.2
315.854	550.4
316.247	534
316.64	519.4
317.033	527.2
317.405	531.6
317.798	521.8
318.192	527.2
318.585	525.6
318.979	529.8
319.372	526.2
319.766	524.4
320.16	528.8
320.553	542.4
320.947	544
321.341	522.2
321.735	523.4
322.129	511.2
322.523	542.2
322.917	522.2
323.311	528.4
323.705	531
324.099	527.6
324.494	549
324.888	527.8
325.282	531.6
325.677	535.6
326.071	537.2
326.466	544.8
326.861	525.8
327.255	536.6
327.65	539.6
328.045	536.2
328.44	528.4
328.835	526.6
329.23	524.4
329.625	542
330.02	528
330.415	546.8
330.81	532.8
331.206	535
331.601	529.4
331.996	534.6
332.37	545.4
332.766	516.8
333.161	542.4
333.557	524.8
333.953	527.6
334.348	817.6
334.744	536
335.14	534.8
335.536	534.2
335.932	537.4
336.328	517.6
336.724	536
337.12	528.8
337.516	531.2
337.913	531
338.309	538.6
338.705	532.8
339.102	533.6
339.498	522.2
339.895	534.4
340.291	517
340.688	533
341.085	516.8
341.481	519.8
341.878	525.8
342.275	544
342.672	515.8
343.069	526.2
343.466	516.6
343.842	530.2
344.239	521.4
344.636	523.6
345.033	522.2
345.431	515.8
345.828	532.4
346.225	530.4
346.623	550
347.02	529
347.418	531.6
347.816	542
348.213	520.6
348.611	535.6
349.009	522.6
349.407	538.2
349.805	518.6
350.203	517.4
350.601	529.4
350.999	521.6
351.397	560
351.795	531.2
352.193	524.4
352.57	532.4
352.969	530.2
353.367	517.2
353.766	520.6
354.164	522.2
354.563	530.2
354.961	520.2
355.36	526
355.759	529
356.158	518.8
356.557	512.6
356.956	521.4
357.355	516.2
357.754	530.8
358.153	527.8
358.552	544.2
358.951	522.6
359.35	535.4
359.75	520.2
360.149	511
360.527	512.2
360.926	517.8
361.326	523
361.726	523
362.125	515.6
362.525	525.2
362.925	517.8
363.325	524.6
363.724	527.2
364.124	514.4
364.524	517.8
364.924	520.4
365.324	530.4
365.725	516.2
366.125	525.6
366.525	528.6
366.904	513.6
367.304	507
367.705	537.6
368.105	528.2
368.506	523.4
368.906	525.2
369.307	517.4
369.708	522.6
370.108	510.6
370.509	525.4
370.91	517.2
371.311	516.6
371.712	524.4
372.113	511.2
372.514	511.4
372.894	519.4
373.295	512
373.696	521.6
374.097	518.4
374.499	532.8
374.9	523.2
375.301	506
375.703	527.4
376.105	511.4
376.506	516.4
376.908	517.6
377.309	522
377.711	519
378.113	511.6
378.493	523.4
378.895	517.4
379.297	528.4
379.699	514.2
380.102	518.8
380.504	521.2
380.906	512.8
381.308	533.6
381.71	519.4
382.113	528.8
382.515	522.6
382.918	519.8
383.299	518.4
383.701	526
384.104	517.2
384.507	503.6
384.909	519.4
385.312	511.2
385.715	510.6
386.118	518.8
386.521	512.8
386.924	520.8
387.327	511.4
387.709	513.8
388.112	500.8
388.515	514.8
388.918	523.6
389.322	518.2
389.725	516.2
390.129	541.6
390.532	524.4
390.936	523.2
391.339	514
391.743	515.4
392.125	522.2
392.529	532.2
392.933	535.2
393.337	513.6
393.74	514.8
394.144	521.2
394.548	514.4
394.953	523.4
395.357	529.8
395.761	523.4
396.144	526.6
396.548	518.8
396.952	526.6
397.357	515.6
397.761	515
398.166	519.2
398.57	519.4
398.975	512.4
399.379	527
399.763	568.6
400.168	516.2
400.572	512.4
400.977	518.8
401.382	527.8
401.787	526
402.192	538
402.597	533.4
403.002	513.2
403.386	526
403.791	532.2
404.197	516.2
404.602	522.4
405.007	521.2
405.413	514
405.818	521.6
406.224	519.8
406.608	509.8
407.014	510.8
407.42	532.8
407.825	515.6
408.231	524
408.637	521
409.043	531.2
409.449	510
409.834	518
410.24	516.6
410.646	530.4
411.052	521.8
411.458	522.4
411.865	525.8
412.271	523.6
412.677	521.6
413.062	524
413.469	516.4
413.875	539
414.282	531
414.689	520.6
415.095	521.8
415.502	520
415.888	523.2
416.294	509.8
416.701	548.8
417.108	519.4
417.515	521.8
417.923	514
418.33	529.4
418.715	528.2
419.123	515.6
419.53	518.2
419.937	517.8
420.345	533.4
420.752	520.8
421.16	528.8
421.546	524.4
421.953	523
422.361	521
422.769	523.8
423.177	509.4
423.585	539.2
423.992	527
424.379	536.2
424.787	541.6
425.195	536.8
425.603	524.4
426.011	534.2
426.419	529.8
426.806	519
427.214	529.8
427.623	534.8
428.031	538.6
428.44	528.6
428.848	534.2
429.235	542.6
429.644	534.6
430.053	538.8
430.461	549.8
430.87	564.2
431.279	551
431.666	556
432.075	563.6
432.484	583.8
432.893	586.2
433.302	610.8
433.711	650.8
434.099	629.6
434.508	647.6
434.918	657.4
435.327	685.4
435.737	697.4
436.125	720
436.534	745.6
436.944	753
437.353	791.8
437.763	821.6
438.173	812.6
438.561	854.2
438.971	870
439.381	904
439.791	917.2
440.201	919.8
440.589	951.2
440.999	972.6
441.409	988.6
441.819	1005.2
442.23	1039
442.619	1045.4
443.029	1055
443.439	1058.4
443.85	1067.8
444.26	1096.6
444.649	1099
445.06	1119
445.471	1123.2
445.881	1149.8
446.292	1161
446.682	1177.4
447.092	1143.8
447.503	1215.2
447.914	1192
448.325	1189.8
448.715	1197
449.126	1196.2
449.537	1186
449.948	1202
450.338	1224.2
450.75	1233.6
451.161	1247
451.572	1255.6
451.984	1245.8
452.374	1227.2
452.786	1249.6
453.197	1258
453.609	1259
453.999	1245.8
454.411	1258.2
454.823	1266.4
455.235	1262.2
455.647	1264.2
456.037	1276.4
456.449	1266.6
456.862	1273.6
457.274	1279.4
457.665	1268.8
458.077	1285.4
458.489	1301.2
458.902	1287.2
459.293	1280.4
459.705	1288
460.118	1280.2
460.53	1279.2
460.921	1285.6
461.334	1282
461.747	1295.2
462.16	1304
462.551	1298
462.964	1295.6
463.377	1279.4
463.79	1291.8
464.182	1307.6
464.595	1289.4
465.008	1286.8
465.421	1297.6
465.813	1298
466.226	1295.8
466.64	1296.2
467.053	1336.8
467.445	1314.8
467.859	1328.4
468.272	1319.2
468.686	1327.6
469.078	1309
469.492	1293
469.906	1295
470.298	1301.6
470.712	1299.6
471.126	1324.2
471.54	1283
471.933	1306.4
472.347	1300.2
472.761	1294.6
473.175	1280.4
473.568	1307.6
473.982	1281.4
474.397	1290
474.79	1289.4
475.204	1272.2
475.619	1265.4
476.033	1271.8
476.426	1261.2
476.841	1237.4
477.256	1272.8
477.649	1240.2
478.064	1246.4
478.479	1238.2
478.872	1246.6
479.287	1235
479.702	1246.4
480.118	1233.4
480.511	1232
480.927	1227.4
481.342	1231.4
481.736	1226.6
482.151	1219.6
482.566	1229.4
482.96	1223.2
483.376	1205.2
483.792	1210.8
484.186	1196.2
484.602	1198.2
485.017	1188.6
485.412	1186.4
485.827	1190.4
486.243	1169.2
486.638	1172.2
487.054	1165.8
487.47	1188.6
487.865	1147.8
488.281	1164
488.697	1147.8
489.092	1150.2
489.508	1137
489.925	1146.8
490.32	1137.4
490.736	1139.6
491.153	1114.4
491.548	1131.8
491.964	1129.2
492.381	1105.8
492.776	1123.2
493.193	1101
493.61	1103.4
494.006	1088.8
494.422	1108.2
494.84	1068
495.235	1079.6
495.652	1079.4
496.069	1073
496.465	1052.6
496.883	1062.2
497.3	1092
497.696	1045.6
498.113	1048.8
498.509	1036
498.927	1022.4
499.344	1026.4
499.741	1024.4
500.158	1030
500.576	1023.4
500.973	1012.8
501.39	1009.4
501.787	1002
502.205	1005
502.623	974.4
503.02	968.4
503.438	976.8
503.856	973.2
504.253	978.4
504.671	961
505.068	955.6
505.486	948.2
505.905	957.2
506.302	943.6
506.72	953
507.118	941.4
507.536	935.6
507.955	922
508.352	940
508.771	930
509.169	937.4
509.587	907
510.006	910.4
510.404	908.8
510.823	901.2
511.221	898.8
511.64	884.6
512.038	897.2
512.457	883.2
512.877	883.6
513.275	874.4
513.694	864.6
514.092	870.8
514.512	879.6
514.91	869
515.33	859
515.749	860.8
516.148	854.2
516.568	865.4
516.966	840.4
517.386	843
517.785	840.2
518.205	827.8
518.603	835
519.024	816.6
519.444	831.4
519.843	830.6
520.263	833
520.662	817.6
521.082	809.2
521.481	803.8
521.902	797
522.301	801.8
522.722	802.4
523.121	788
523.542	783.2
523.963	783.8
524.362	784.8
524.783	785.6
525.183	778.6
525.604	770
526.003	769.4
526.425	762
526.824	776.8
527.246	764.8
527.646	770.4
528.067	772.6
528.467	756.2
528.888	746.2
529.289	740.2
529.71	750.4
530.11	744.6
530.532	743.6
530.932	728.6
531.354	727
531.755	760.2
532.176	737.2
532.577	727.8
532.999	731
533.4	723.6
533.822	736.6
534.223	719.4
534.645	717.8
535.046	713.6
535.468	713
535.869	720.4
536.292	702.6
536.693	726.2
537.115	708
537.516	706
537.939	699.8
538.34	719.6
538.742	710
539.165	699.8
539.566	691
539.989	692.8
540.391	684.4
540.814	691.4
541.216	692.2
541.639	684.8
542.041	686.2
542.464	670.8
542.866	679.2
543.268	671.4
543.691	687.2
544.093	687
544.517	694.8
544.919	666
545.343	687.8
545.745	670.4
546.147	664.8
546.571	662.2
546.974	649.8
547.398	657.6
547.8	673
548.224	657
548.627	648.4
549.03	649
549.454	638.8
549.857	640.6
550.281	641
550.684	643.4
551.087	649.4
551.512	645
551.915	641.6
552.34	637
552.743	630.4
553.146	641.6
553.571	633.6
553.975	646.8
554.399	632.8
554.803	661.6
555.207	622.6
555.632	613.6
556.036	625.2
556.461	616
556.865	626.8
557.268	623
557.694	616.4
558.098	620.8
558.502	628.2
558.927	614.2
559.332	607.2
559.736	614.2
560.162	614.6
560.566	602.2
560.992	606.4
561.396	600
561.801	607.2
562.227	604.4
562.631	596.6
563.036	603
563.462	613
563.867	594.6
564.272	591.6
564.698	597.6
565.103	586
565.508	601.6
565.935	590
566.34	586.4
566.745	605.2
567.172	586.4
567.577	600
567.982	591.8
568.409	592.6
568.815	578
569.22	576.4
569.626	584.8
570.053	576.4
570.459	586.6
570.865	576.4
571.292	575.2
571.698	575.8
572.104	562.8
572.531	572
572.937	586
573.343	570.6
573.75	574.2
574.177	579.2
574.583	578.8
574.99	573.4
575.396	585
575.824	568.8
576.231	565.4
576.637	564.8
577.065	583.8
577.472	569.4
577.879	571.4
578.286	577.2
578.714	560.6
579.121	570.8
579.528	570.8
579.935	570.8
580.364	557.8
580.771	543.6
581.178	556.6
581.585	566.2
582.014	563.4
582.421	544.2
582.829	551.2
583.236	561.4
583.644	555.2
584.073	552.6
584.481	550
584.889	554.2
585.296	557
585.726	548.8
586.134	542.6
586.542	546.4
586.95	562.4
587.358	543.8
587.787	550
588.196	542.6
588.604	552.8
589.012	551
589.421	530
589.851	537.2
590.259	549.6
590.668	538.8
591.076	571.4
591.485	537.4
591.894	538.4
592.324	555
592.733	548.2
593.142	540.8
593.551	534.6
593.96	536.8
594.369	534.6
594.8	537.6
595.209	537.4
595.618	524
596.028	527.2
596.437	529.6
596.847	535.2
597.256	539.6
597.687	534.8
598.097	535.2
598.507	520.6
598.917	536
599.327	535
599.736	538.4
600.146	536.6
600.556	528
600.988	539
601.398	527.4
601.808	540.8
602.219	515
602.629	526.4
603.039	529.4
603.45	554.4
603.86	530.4
604.271	542.2
604.703	530.8
605.114	525.4
605.525	523.8
605.935	532
606.346	541.4
606.757	529.8
607.168	523.6
607.579	516.6
607.99	525.2
608.402	526.8
608.813	523.8
609.224	517
609.636	506.6
610.047	519.2
610.48	522.6
610.892	523
611.303	526
611.715	515.8
612.127	521
612.539	519.4
612.95	523
613.362	518.8
613.774	506.6
614.186	518.4
614.599	517
615.011	532.4
615.423	523.8
615.835	525
616.248	514.8
616.66	528.8
617.073	516.8
617.485	521.4
617.898	524.2
618.311	535.6
618.723	521.4
619.136	546.8
619.549	532.6
619.962	547
620.375	521.2
620.788	528.4
621.201	525.6
621.614	524.6
622.028	531.4
622.441	531.2
622.854	531.4
623.268	515.2
623.681	519.6
624.095	518
624.509	531.4
624.922	532.8
625.336	519.8
625.728	519
626.142	529.6
626.556	533.6
626.97	521.4
627.384	517.4
627.799	519
628.213	527.6
628.627	514.8
629.041	520
629.456	521
629.87	518.2
630.285	524.6
630.699	530
631.093	515.2
631.507	528.2
631.922	524
632.337	527.6
632.752	511.4
633.167	515.6
633.582	517.2
633.997	513
634.412	519.2
634.806	521
635.221	519.8
635.637	529.2
636.052	514
636.468	518
636.883	532.6
637.299	522.6
637.715	508.8
638.109	514.4
638.525	499.8
638.941	527.4
639.357	524.8
639.773	521.2
640.189	513.2
640.584	509.8
641	522
641.416	506.4
641.832	511.2
642.249	509.6
642.665	516.2
643.06	516.4
643.477	518.6
643.894	502
644.31	510.6
644.727	513.8
645.123	517.2
645.54	502.2
645.957	517
646.374	524.4
646.77	514.4
647.187	531.6
647.604	503.8
648.021	496.2
648.439	507.8
648.835	517.2
649.252	512.6
649.67	507.6
650.088	510.6
650.484	515
650.902	511.4
651.32	517.2
651.738	515.2
652.134	511.2
652.552	523.8
652.971	522.8
653.389	510.6
653.786	519.8
654.204	520.6
654.622	507.8
655.019	517
655.438	512
655.857	509.8
656.275	517.8
656.673	500.8
657.091	515.4
657.51	508.4
657.908	509.2
658.327	514.6
658.746	496.6
659.144	503.2
659.563	512.6
659.982	506.6
660.38	503.6
660.8	496.8
661.219	512
661.617	508.6
662.037	505.4
662.457	513.4
662.855	494
663.275	530.2
663.695	502.6
664.094	503.8
664.514	507.2
664.934	497
665.333	519
665.753	495
666.152	502.2
666.572	492.8
666.993	515.2
667.392	503.2
667.812	501.4
668.212	497
668.632	518.4
669.053	501
669.453	510.8
669.874	512.8
670.273	503.8
670.694	503.4
671.116	513.4
671.515	509.4
671.937	508.6
672.337	506.6
672.758	502.6
673.158	507
673.58	497.2
673.98	510
674.402	514.6
674.824	505
675.224	498.8
675.646	498.2
676.047	490.2
676.469	505
676.869	510.2
677.292	505.4
677.693	491
678.115	496.4
678.516	510
678.939	497.4
679.34	497.6
679.762	511.8
680.164	502.2
680.586	493.2
680.988	502.8
681.411	523.4
681.812	498.2
682.236	496.4
682.637	498.2
683.061	485
683.462	504
683.864	495.2
684.288	507.6
684.69	493.8
685.114	508.6
685.516	509.2
685.94	491.6
686.342	508.8
686.766	499.2
687.168	498.2
687.571	519.2
687.995	501.2
688.398	492
688.822	495.6
689.225	519.6
689.628	514.8
690.052	509.6
690.456	503.4
690.88	502.4
691.284	491.4
691.687	502.8
692.112	493.2
692.515	495.2
692.919	504.6
693.344	497.8
693.747	498
694.173	496.4
694.577	512.6
694.98	500.6
695.406	499
695.81	502.8
696.214	502.6
696.64	503.4
697.044	498.4
697.448	503
697.874	499
698.279	498.6
698.684	491.4
699.11	490.6
699.514	494.8
699.919	497
700.324	495.8
700.75	490.6
701.156	497.6
701.561	506.2
701.987	499.8
702.393	497.8
702.798	502
703.203	496.2
703.63	498
704.036	490.4
704.442	498.8
704.847	492.4
705.274	498.2
705.68	501.8
706.086	501.4
706.492	493.6
706.92	494
707.326	505.6
707.732	493.6
708.139	489.6
708.545	493.4
708.973	492.6
709.38	498
709.786	484.4
710.193	504.6
710.6	503
711.028	491.2
711.435	497.6
711.842	502.8
712.249	491.6
712.656	489.8
713.064	505.6
713.492	491
713.9	490.4
714.307	502.4
714.715	499.8
715.123	497
715.53	497.4
715.938	500.4
716.367	499.8
716.775	493.4
717.184	487.6
717.592	491.6
718	500.4
718.408	524.4
718.816	533.2
719.225	495.8
719.633	504
720.042	487.2
720.472	500
720.881	515.6
721.29	500.8
721.699	489.6
722.108	503.8
722.517	500
722.926	494.4
723.335	511.6
723.744	496
724.154	489.4
724.563	499.6
724.973	491.4
725.382	495.6
725.792	492.6
726.202	489.2
726.612	507
727.022	497
727.432	494.6
779.813	499.2
780.223	527
780.634	495.4
781.044	488.6
781.454	495
781.865	506.2
782.276	488.2
782.686	507.4
783.097	492.8
783.508	491.6
783.919	493.2
784.33	500.8
784.741	508.8
785.152	490.8
785.563	488.8
785.974	487.4
786.386	501.2
786.776	492.4
787.188	493
787.599	483.4
788.011	503.2
788.423	496.6
788.835	497
789.247	496.6
789.659	497.4
790.071	492.2
790.483	535
790.874	496.8
791.286	499.8
791.699	492.4
792.111	495.8
792.524	501
792.937	499.4
793.349	487.4
793.741	493.8
794.154	494.4
794.567	510.4
794.98	502.8
795.393	484.4
795.785	508.4
796.198	491.8
796.612	495.2
797.026	494
797.439	482.4
797.831	491
798.245	484.2
798.659	499.4
799.073	493.6
799.487	491.6
799.88	494.8
800.294	490.6
800.708	507.4
801.123	487.4
801.516	504.2
801.93	482.6
802.345	482.8
802.76	494.8
803.153	511.8
803.568	505.8
803.983	499.8
804.377	497.2
804.792	490.2
805.207	488
805.601	487.6
806.016	522.4
806.432	495.2
806.826	520
807.242	508.4
807.658	493.6
808.052	492
808.468	492.2
808.884	487.4
809.279	494.8
809.695	500.6
810.111	511.2
810.506	493.4
810.922	492.4
811.339	487.4
811.734	498.6
812.151	488.2
812.546	487.8
812.963	488.8
813.38	490.2
813.776	483.8
814.193	510.4
814.589	479.8
815.006	485
815.402	486
815.82	488
816.237	488.8
816.633	499.6
817.051	495.6
817.448	493.6
817.866	482.8
818.262	504.2
818.68	496.6
819.077	487
819.495	491.2
819.892	529.6
820.311	487.6
820.708	489.4
821.127	491.4
821.524	494.6
821.943	492.6
822.34	505.2
822.759	491.2
823.157	495.2
823.576	505.4
823.974	496.6
824.393	551
824.791	496.2
825.189	484
825.609	492.2
826.007	501
826.427	484.4
826.826	490.6
827.246	494.4
827.644	489.6
828.043	503.6
828.463	490.6
828.862	497.8
829.261	499.2
829.682	483
830.081	498.2
830.502	484.2
830.901	491.8
831.301	485
831.722	481.6
832.121	491.4
832.521	489.6
832.943	495.4
833.342	495
833.742	486.4
834.164	484
834.564	481.2
834.965	497
835.386	493.8
835.787	491.6
836.188	487.8
836.588	492.6
837.01	487
837.411	479.6
837.812	494.8
838.213	489.8
838.636	488.6
839.037	545.8
839.438	492.6
839.84	488.4
840.263	495.2
840.664	496.6
841.066	488.6
841.468	496
841.891	486.4
842.293	502.6
842.695	492.4
843.098	497.2
843.5	486.6
843.902	491.6
844.326	497.4
844.729	499
845.131	495
845.534	493.8
845.937	499.6
846.34	503.8
846.764	478.6
847.167	492.4
847.571	483
847.974	488
848.377	491
848.781	525
849.184	500.4
849.588	486.6
849.992	488.2
850.396	492.6
850.821	503.2
851.225	493.6
851.63	488.8
852.034	502.6
852.438	490.8
852.843	556.8
853.247	482.8
853.652	483.6
854.057	507.6
854.462	488.4
854.867	498
855.272	520
855.677	492.2
856.082	481.8
856.487	483.4
856.893	492.4
857.298	487.6
857.704	481.2
858.11	493.6
858.516	505.2
858.922	486.4
859.328	500
859.734	486
860.14	496.4
860.525	497
860.931	486.8
861.338	484.4
861.745	500.4
862.151	490
862.558	496.8
862.965	481.2
863.372	485.6
863.779	489.4
864.186	503.2
864.572	492.2
864.98	505.2
865.387	519.6
865.795	486
866.203	494.6
866.61	486.2
867.018	492
867.405	500
867.813	487.8
868.221	490.4
868.63	488.4
869.038	495.6
869.425	521.2
869.834	492.6
870.243	485.8
870.652	494.8
871.039	488.2
871.448	493
871.857	496.4
872.266	492.8
872.654	485.2
873.064	488
873.473	490.8
873.883	487.8
874.271	480.8
874.681	499.2
875.091	479.8
875.48	496.4
875.89	502.8
876.3	492.2
876.689	477.6
877.1	492
877.51	487.4
877.9	509.6
878.31	486
878.721	516.4
879.111	492
879.522	482.8
879.933	479.8
880.323	476.4
880.734	486.8
881.125	491.6
881.536	485
881.948	493.4
882.338	489.4
882.75	496.4
883.141	491.2
883.553	486.6
883.944	507.6
884.356	497.2
884.769	489.8
885.16	489.6
885.573	484.8
885.964	488.2
886.377	494.6
886.768	485.8
887.181	488.4
887.573	487.4
887.987	488.6
888.378	498.4
888.792	489.6
889.184	529.8
889.598	485.2
889.99	486.8
890.383	487.6
890.797	482
891.19	495
891.604	483.4
891.997	480.4
892.411	483.6
892.805	481.8
893.198	486.8
893.613	476.2
894.006	487.4
894.421	484.8
894.815	474.8
895.209	487.4
895.624	530.2
896.018	511.8
896.412	487.2
896.828	478.6
897.222	496.2
897.617	490
898.033	503.8
898.427	487.4
898.822	486.4
899.239	480.6
899.634	481.8
900.029	498
900.424	481.8
900.841	480.2
901.236	494.8
901.632	484.8
902.027	537.8
902.445	492
902.841	488.2
903.237	489.4
903.633	494.6
904.05	503
904.447	489.4
904.843	488.6
905.24	489.6
905.636	474
906.033	485
906.451	494.6
906.848	481
907.246	481.6
907.643	485.8
908.04	485.6
908.438	499
908.835	498.4
909.254	484
909.652	486.6
910.05	488
910.448	486
910.846	492
911.244	480
911.643	486.2
912.041	488.4
912.44	495.8
912.839	481.8
913.237	478
913.636	476.8
914.035	495
914.434	494.8
914.834	502.4
915.233	499.8
915.633	489.6
916.032	484.8
916.432	483.6
916.832	502.4
917.232	482.4
917.632	482.8
918.032	493.8
918.432	490.8
918.833	490.8
919.233	481
919.634	479.4
920.035	487.8
920.436	489
920.837	486.2
921.238	482.2
921.639	482.2
922.019	491
922.42	487.2
922.822	490.6
923.224	478.4
923.625	483
924.027	483.4
924.429	497.6
924.81	491.2
925.212	497
925.615	488.6
926.017	481.4
926.42	493.8
926.801	490.8
927.204	491.2
927.607	498.2
928.01	495.6
928.413	489.6
928.795	474.4
929.199	485.4
929.602	482.6
930.006	473.8
930.388	479
930.792	489
931.196	487.4
931.579	511.4
931.983	479.2
932.388	529.8
932.771	486.4
933.176	486.6
933.58	490.6
933.964	493
934.369	477.4
934.774	486.2
935.158	485.2
935.563	490
935.947	482
936.353	495
936.759	495.6
937.143	499.2
937.549	490.6
937.934	497.2
938.34	493.8
938.746	475.4
939.131	483.4
939.538	482.8
939.923	485.6
940.33	488.4
940.716	490.6
941.123	493
941.508	498.8
941.916	493
942.302	489.8
942.709	492
943.096	478
943.503	492.8
943.89	479.2
944.298	486.8
944.685	509
945.072	485.2
945.48	496
945.867	482.4
946.276	483
946.663	505.4
947.051	499.8
947.46	489.6
947.848	492.8
948.257	489
948.645	493
949.033	489
949.443	485
949.831	516.2
950.22	477.2
950.63	491
951.018	506.2
951.407	481
951.796	481.2
952.207	487.4
952.596	487.6
952.985	470
953.375	518.8
953.786	480.4
954.176	479.4
954.566	490.4
954.956	474.8
955.367	482
955.758	500.4
956.148	475.8
956.539	486.2
956.929	474.2
957.341	475.8
957.732	477.8
958.123	495.2
958.515	480.8
958.906	492.8
959.297	481.8
959.689	483.8
960.102	477.6
960.494	480.2
960.886	485.4
961.278	485.2
961.67	502
962.062	513.6
962.455	483
962.847	482
963.24	482.2
963.633	488.6
964.026	473.8
964.419	483.2
964.812	492.6
965.206	479
965.599	491.4
965.993	486.2
966.386	479.8
966.78	491.2
967.174	488.4
967.569	482.4
967.963	474.6
968.357	475.6
968.752	484
969.146	480.4
969.541	478.4
969.936	483.6
970.331	486.6
970.705	484.4
971.1	484
971.496	491.6
971.892	472.6
972.287	486.8
972.683	492.6
973.079	482.6
973.454	495.8
973.85	490.4
974.247	487.6
974.643	509.6
975.04	478.2
975.415	478.4
975.812	480.4
976.209	479.6
976.607	478.8
976.982	496.4
977.38	500.4
977.778	492.2
978.175	485.4
978.552	489
978.95	486.4
979.348	494
979.725	526.6
980.123	483.2
980.522	480.8
980.899	482.4
981.298	481.6
981.697	485
982.075	489.6
982.474	480.6
982.852	490.8
983.251	484.6
983.651	485.8
984.029	492.4
984.429	484
984.808	480.2
985.208	484.4
985.609	477.6
985.987	483.8
986.388	482
986.768	490.2
987.168	475.8
987.548	490.8
987.949	491.2
988.329	490
988.731	474
989.111	483.4
989.491	485.6
989.893	485.2
990.273	489
990.676	481.6
991.057	484.2
991.459	481.4
991.84	482.4
992.221	486
992.624	508.2
993.006	489
993.388	490.2
993.791	491.2
994.173	483.2
994.576	505.4
994.959	479.8
995.341	478.6
995.724	476.2
996.128	484
996.511	483
996.894	482
997.298	482.6
997.681	482
998.065	482.2
998.448	481.2
998.854	486.8
999.237	466.2
999.621	486.2
1000.01	496.6
1000.39	476.8
1000.8	471.8
1001.18	486
1001.56	490.8
1001.95	486.4
1002.33	482.8
1002.72	483.2
1003.13	484.2
1003.51	480.4
1003.9	476.6
1004.28	491.6
1004.67	476.2
1005.06	481.2
1005.44	501.8
1005.83	471
1006.21	482
1006.6	476.6
1006.99	492.2
1007.37	492.2
1007.76	484.6
1060.12	481.2
1060.51	479.4
1060.89	490.4
1061.28	496
1061.67	499.4
1062.06	485.4
1062.45	485.4
1062.83	477.8
1063.22	490.4
1063.61	518.8
1064	494.2
1064.39	477.6
1064.78	478.2
1065.14	487
1065.53	485.2
1065.92	480
1066.31	476.4
1066.7	489.2
1067.09	490.6
1067.46	492
1067.85	480.8
1068.24	477.4
1068.63	488
1069.02	482.2
1069.39	492.2
1069.78	479.6
1070.17	477.8
1070.57	465.2
1070.93	480.2
1071.33	486
1071.72	482.2
1072.11	482.2
1072.48	473.4
1072.87	478.4
1073.26	483.2
1073.64	480.8
1074.03	477.6
1074.4	482
1074.79	484.8
1075.19	486.6
1075.56	486
1075.95	479
1076.34	479.8
1076.72	481.2
1077.11	495.6
1077.48	494
1077.88	488.6
1078.25	479.2
1078.64	486.2
1079.02	486
1079.41	498.6
1079.78	482
1080.18	476.4
1080.55	534
1080.95	475
1081.32	481.2
1081.72	481.6
1082.09	485.8
1082.49	483.4
1082.86	482.4
1083.24	474.8
1083.63	474.6
1084.01	486
1084.38	482.6
1084.78	474.2
1085.16	481.6
1085.55	489.4
1085.93	493
1086.31	470.8
1086.7	497.6
1087.08	481.2
1087.46	478.6
1087.83	476.2
1088.23	488.2
1088.61	482.4
1088.99	491.8
1089.36	472.4
1089.76	483.8
1090.14	483.8
1090.52	479.6
1090.9	475.4
1091.27	497.4
1091.67	502.4
1092.05	481.2
1092.43	471.4
1092.81	485.6
1093.19	489.6
1093.57	479.6
1093.95	476
1094.35	486.2
1094.73	482.8
1095.11	473
1095.49	476.6
1095.87	479.2
1096.25	489.2
1096.63	489.6
1097.01	475.8
1097.39	479
1097.77	473.4
1098.15	485
1098.53	477.8
1098.91	482.6
1099.29	477
1099.68	489.4
1100.06	486.6
1100.44	477
1100.82	484
1101.18	484.8
1101.56	482.2
1101.95	481
1102.33	481
1102.71	476.8
1103.1	477.8
1103.48	481.4
1103.86	476
1104.22	497.4
1104.61	482.4
1104.99	482.6
1105.38	468.2
1105.76	487
1106.12	483.6
1106.51	503.4
1106.89	491.6
1107.26	482.4
1107.64	484
1108.03	476.8
1108.41	478.4
1108.78	482.4
1109.16	478
1109.55	492.2
1109.91	470.8
1110.3	472.8
1110.69	491.4
1111.05	478.2
1111.44	475.8
1111.8	485.4
1112.19	483.6
1112.58	482.6
1112.94	473
1113.33	476.6
1113.7	480
1114.09	468
1114.45	476
1114.84	472.4
1115.21	486.6
1115.6	482.6
1115.96	481.8
1116.35	485.4
1116.72	478.6
1117.11	484.2
1117.48	477
1117.85	486.6
1118.24	488.8
1118.6	482.8
1118.99	475.6
1119.36	479.4
1119.73	479
1120.12	484.8
1120.49	472.2
1120.86	479
1121.25	482.4
1121.62	476.2
1121.99	476
1122.38	490.4
1122.76	476
1123.13	476.4
1123.5	483
1123.89	480.2
1124.26	475.4
1124.63	483.6
1125	475.6
1125.4	480.6
1125.77	477.2
1126.14	467.2
1126.51	485.4
1126.88	484.8
1127.26	474
1127.63	465.2
1128.02	481.8
1128.4	477.8
1128.77	478
1129.14	484.2
1129.52	480.8
1129.89	484
1130.26	479.2
1130.64	472.8
1131.01	481
