#lambda/nm	C1
208.295	463.2
208.67	432.4
209.045	392.8
209.419	404.6
209.794	535.2
210.169	516.2
210.544	619.2
210.919	526
211.295	520.6
211.67	537.2
212.045	528.4
212.421	521.4
212.796	554.6
213.172	526
213.547	520
213.923	523.8
214.299	520.4
214.675	534.8
215.051	529
215.427	538.2
215.803	539
216.179	539.2
216.555	527.2
216.932	535.4
217.308	531.6
217.684	526
218.061	537.6
218.438	527
218.814	526.2
219.191	535.8
219.568	520
219.945	527.4
220.322	538.6
220.699	534.8
221.076	534.6
221.453	529.2
221.83	525
222.208	530.4
222.585	525.2
222.962	527.8
223.34	529
223.717	533
224.095	522.8
224.473	536.2
224.851	524.4
225.229	524
225.607	538
225.985	519.2
226.363	525.4
226.741	521.6
227.119	526.8
227.497	536.2
227.876	519.8
228.254	534.6
228.633	536.6
229.011	529.4
229.39	527.6
229.769	529
230.148	536.6
230.527	542.8
230.905	527.4
231.284	528.8
231.664	527.4
232.043	541.8
232.422	529
232.801	526.2
233.181	530.6
233.56	523
233.94	524.8
234.319	512.2
234.699	528.8
235.079	553.8
235.458	557.8
235.838	543.8
236.218	522
236.598	525.4
236.978	520.4
237.358	518.6
237.738	525.2
238.119	533.6
238.499	516.4
238.88	525.2
239.26	535
239.641	524.8
240.021	519.6
240.402	533.8
240.783	533
241.163	526.2
241.544	529.8
241.925	526.8
242.306	549.2
242.687	521.8
243.069	530.2
243.45	542.4
243.831	527.6
244.212	538
244.594	559.6
244.975	526.8
245.357	527.2
245.739	523.2
246.12	525.2
246.502	537.2
246.884	529.2
247.266	527
247.648	533.6
248.03	539.8
248.412	530
248.794	536
249.176	533.8
249.559	530.4
249.941	527
250.323	520.4
250.706	524.2
251.089	529
251.471	523.2
251.854	530.4
252.237	519.4
252.62	535
253.002	531.2
253.385	522.2
253.769	536.6
254.152	527.6
254.535	535.4
254.918	522.4
255.301	526.4
255.685	518
256.068	517.6
256.452	548.4
256.835	528.8
257.219	529.6
257.603	528
257.986	512.2
258.37	530
258.754	519.6
259.138	526.2
259.522	535.2
259.906	522.4
260.29	531
260.675	524.8
261.059	521
261.443	518.2
261.828	532.8
262.212	529.4
262.597	516.2
262.981	521.4
263.366	529.8
263.751	526.4
264.136	521.8
264.521	528.8
264.906	517
265.291	533
265.676	522
266.061	527.4
266.446	545
266.831	526
267.217	547.4
267.602	531.4
267.987	533.6
268.373	525.4
268.759	531.4
269.144	537.4
269.53	527.2
269.916	518.4
270.302	519
270.688	531
271.074	529.6
271.46	534
271.846	551
272.232	524.6
272.618	523.8
273.004	525.4
273.391	531.4
273.777	540.2
274.164	533.4
274.55	533.2
274.937	533.8
275.324	523.8
275.71	530.4
276.097	532.4
276.484	526.4
276.871	527.2
277.258	529
277.645	520.6
278.032	523.6
278.419	530.2
278.807	527.6
279.194	521
279.581	523.8
279.969	526.6
280.356	529.4
280.744	523
281.131	544.6
281.519	530
281.907	524
282.295	525.2
282.682	523
283.07	523.6
283.458	536
283.846	535
284.235	525.4
284.623	537.6
285.011	519.8
285.399	528.4
285.788	525.4
286.176	513.6
286.565	533.4
286.953	517.4
287.342	526.4
287.731	520.8
288.119	518.4
288.508	519.8
288.897	529.2
289.286	512.8
289.675	524.6
290.064	537.6
290.453	517.2
290.821	526.6
291.21	538
291.599	526.2
291.989	529.2
292.378	530.4
292.768	541.4
293.157	533.6
293.547	528.2
293.936	526.6
294.326	519.2
294.716	522.8
295.106	519.6
295.496	538.4
295.886	539.8
296.276	527.2
296.666	527.8
297.056	521.2
297.446	518.8
297.836	531.6
298.227	527.6
298.617	533.2
299.008	532.6
299.398	526.4
299.789	524.8
300.179	530
300.57	538
300.961	519
301.352	521.2
301.742	537.8
302.133	525.4
302.524	525.6
302.915	530.8
303.307	515.8
303.698	535
304.089	529.2
304.48	529.2
304.872	530.2
305.263	526.8
305.655	520.2
306.046	530
306.438	527.6
306.829	527.8
307.221	538.4
307.613	528.6
308.005	536.4
308.397	531.8
308.789	545
309.181	548
309.573	538.8
309.965	535
310.357	526.2
310.749	543
311.142	519.8
311.534	529.4
311.926	538.6
312.319	526.6
312.711	514.2
313.104	541.6
313.497	526.6
313.889	553.2
314.282	534.6
314.675	542.8
315.068	529.6
315.461	539.2
315.854	552
316.247	529.8
316.64	520.4
317.033	534.8
317.405	532.2
317.798	524.2
318.192	532.2
318.585	521.4
318.979	530
319.372	525
319.766	526.6
320.16	541
320.553	537
320.947	548.4
321.341	530.4
321.735	524.6
322.129	519
322.523	547
322.917	520.8
323.311	534.4
323.705	530.6
324.099	534.8
324.494	543
324.888	532.2
325.282	525.8
325.677	540.6
326.071	536
326.466	529.2
326.861	531.2
327.255	534.2
327.65	544.6
328.045	537.2
328.44	533
328.835	534.8
329.23	525
329.625	545.2
330.02	528.8
330.415	547.8
330.81	531.6
331.206	532.2
331.601	520.2
331.996	532.6
332.37	542.8
332.766	524.2
333.161	543.8
333.557	526.8
333.953	527
334.348	701
334.744	525.6
335.14	526.8
335.536	521
335.932	536.8
336.328	525.4
336.724	533
337.12	524.4
337.516	530.6
337.913	527.4
338.309	533.2
338.705	526.2
339.102	537
339.498	528.2
339.895	542
340.291	526.6
340.688	537.2
341.085	521.4
341.481	519.8
341.878	532
342.275	542
342.672	525.8
343.069	525.4
343.466	520.4
343.842	539
344.239	524.2
344.636	524.8
345.033	522
345.431	524.2
345.828	525.6
346.225	533.6
346.623	552
347.02	529.4
347.418	538.4
347.816	537
348.213	520.4
348.611	533.2
349.009	523.6
349.407	536.8
349.805	513.2
350.203	514.8
350.601	541
350.999	523.6
351.397	573.2
351.795	522.4
352.193	537
352.57	533.6
352.969	535.6
353.367	516.8
353.766	508.6
354.164	519.4
354.563	536.6
354.961	530.2
355.36	520.8
355.759	525
356.158	521.8
356.557	522
356.956	517.8
357.355	516.6
357.754	531.6
358.153	531.4
358.552	535
358.951	521.4
359.35	530.8
359.75	526.4
360.149	519
360.527	514.2
360.926	520.4
361.326	523.6
361.726	520.6
362.125	516.4
362.525	535
362.925	522.4
363.325	523
363.724	521.6
364.124	515
364.524	523.6
364.924	523.4
365.324	524
365.725	513.4
366.125	528.6
366.525	519.8
366.904	518.2
367.304	503.8
367.705	534.2
368.105	528.8
368.506	515
368.906	522.2
369.307	523.4
369.708	526.2
370.108	512.2
370.509	524.2
370.91	516.2
371.311	523.2
371.712	514
372.113	516.6
372.514	510.2
372.894	522
373.295	502
373.696	522.4
374.097	528.2
374.499	538
374.9	518.4
375.301	518.2
375.703	520.8
376.105	510.2
376.506	518.6
376.908	514.6
377.309	514.2
377.711	521.2
378.113	514
378.493	527.4
378.895	522
379.297	518.6
379.699	512.8
380.102	528.2
380.504	511.6
380.906	513.2
381.308	539.4
381.71	515.6
382.113	522.8
382.515	518
382.918	527.8
383.299	512.6
383.701	523.6
384.104	521.8
384.507	507
384.909	520.4
385.312	511.2
385.715	511
386.118	521.8
386.521	512.8
386.924	528.4
387.327	512
387.709	508
388.112	504.6
388.515	517.8
388.918	513.4
389.322	518.8
389.725	516.6
390.129	531.2
390.532	521
390.936	507.8
391.339	511.4
391.743	518.6
392.125	512.2
392.529	523
392.933	530
393.337	521.6
393.74	520.2
394.144	519.2
394.548	520.4
394.953	519.6
395.357	531.4
395.761	513.8
396.144	520.6
396.548	524
396.952	521.2
397.357	523.4
397.761	509.4
398.166	509.6
398.57	512.8
398.975	517.2
399.379	516.2
399.763	552.6
400.168	518.6
400.572	515.6
400.977	521.2
401.382	531.2
401.787	527
402.192	537.4
402.597	530.2
403.002	512.6
403.386	531.6
403.791	535.6
404.197	514.8
404.602	515.6
405.007	514.6
405.413	508.2
405.818	518.4
406.224	508
406.608	507.6
407.014	511.2
407.42	524
407.825	510.6
408.231	526.4
408.637	522.6
409.043	528.6
409.449	517
409.834	520.4
410.24	522.4
410.646	528.4
411.052	527.2
411.458	524.2
411.865	523.4
412.271	529.6
412.677	517.6
413.062	523.6
413.469	515.4
413.875	543.2
414.282	525.2
414.689	516.8
415.095	523.4
415.502	514.8
415.888	520
416.294	510.6
416.701	554
417.108	514.4
417.515	520.4
417.923	521.2
418.33	528.2
418.715	524.6
419.123	521
419.53	514.2
419.937	518.2
420.345	529.4
420.752	510.4
421.16	530
421.546	519.8
421.953	525.6
422.361	518
422.769	512.4
423.177	514
423.585	538.6
423.992	529.6
424.379	529
424.787	520.2
425.195	526.4
425.603	521.8
426.011	527.4
426.419	526.8
426.806	515.2
427.214	527.2
427.623	536.4
428.031	534.2
428.44	523.2
428.848	534.2
429.235	530.4
429.644	529.4
430.053	527
430.461	535.8
430.87	546.6
431.279	525.6
431.666	517.4
432.075	533.4
432.484	531.2
432.893	535
433.302	543.2
433.711	572.8
434.099	546.4
434.508	536.2
434.918	532
435.327	554.6
435.737	553.6
436.125	554
436.534	561.8
436.944	564.6
437.353	580.2
437.763	586
438.173	570.6
438.561	593.6
438.971	578.4
439.381	589.8
439.791	604.8
440.201	593
440.589	612
440.999	622.4
441.409	627
441.819	611
442.23	641.2
442.619	644
443.029	640.2
443.439	639.6
443.85	657.6
444.26	658.6
444.649	650
445.06	661.2
445.471	669.2
445.881	671.2
446.292	683.6
446.682	698.8
447.092	675.8
447.503	725.4
447.914	685.2
448.325	687
448.715	685.6
449.126	690
449.537	694.8
449.948	702.6
450.338	709.2
450.75	709.8
451.161	701.2
451.572	719.6
451.984	694.2
452.374	698.4
452.786	713.4
453.197	721.8
453.609	715.4
453.999	711.2
454.411	712.8
454.823	733
455.235	734.6
455.647	731.8
456.037	723.6
456.449	718.6
456.862	731.4
457.274	728.6
457.665	717.4
458.077	737.8
458.489	761
458.902	718.4
459.293	734.4
459.705	732.8
460.118	722.4
460.53	752.6
460.921	733.6
461.334	744.4
461.747	744.8
462.16	755.4
462.551	761.2
462.964	757.8
463.377	738
463.79	744.8
464.182	754.2
464.595	735.8
465.008	759.4
465.421	760
465.813	746.4
466.226	759.8
466.64	748.6
467.053	804.4
467.445	769.2
467.859	770.2
468.272	772
468.686	770.4
469.078	768
469.492	750
469.906	766.8
470.298	763.2
470.712	769
471.126	792
471.54	751.2
471.933	768.4
472.347	766.6
472.761	777
473.175	757.2
473.568	770
473.982	760.6
474.397	774.8
474.79	767.6
475.204	761
475.619	760
476.033	757
476.426	760.4
476.841	758
477.256	780.6
477.649	745.6
478.064	755.6
478.479	749.8
478.872	760.4
479.287	741.8
479.702	755.8
480.118	754.6
480.511	751.4
480.927	748.8
481.342	753.8
481.736	749.6
482.151	748.8
482.566	761.6
482.96	749.2
483.376	761.2
483.792	746.2
484.186	759.2
484.602	747.8
485.017	749.8
485.412	743
485.827	746
486.243	744.8
486.638	757.8
487.054	764.8
487.47	747.2
487.865	742.6
488.281	738.8
488.697	751.2
489.092	741.4
489.508	736.4
489.925	736.4
490.32	723.2
490.736	740.6
491.153	725.6
491.548	732.2
491.964	744
492.381	727
492.776	737
493.193	724.8
493.61	738.4
494.006	719.4
494.422	722.8
494.84	709.8
495.235	730.2
495.652	722
496.069	720.2
496.465	709
496.883	713
497.3	730.4
497.696	710.6
498.113	715.2
498.509	713.2
498.927	697.2
499.344	694.6
499.741	701
500.158	702.6
500.576	700
500.973	703.2
501.39	693.8
501.787	690
502.205	701.8
502.623	695.4
503.02	672.4
503.438	688
503.856	684.8
504.253	695
504.671	687
505.068	671.6
505.486	688.4
505.905	696
506.302	680.8
506.72	686.2
507.118	678.4
507.536	679.4
507.955	670.4
508.352	673
508.771	675.8
509.169	670
509.587	658.8
510.006	664.8
510.404	665.8
510.823	654.2
511.221	661.4
511.64	655.8
512.038	660.2
512.457	652.8
512.877	656
513.275	656
513.694	659.6
514.092	653.2
514.512	652.4
514.91	652.6
515.33	656.6
515.749	651.8
516.148	652.8
516.568	657.4
516.966	645
517.386	633
517.785	638.4
518.205	633.4
518.603	638.6
519.024	643
519.444	640.8
519.843	648.4
520.263	631.6
520.662	635.4
521.082	637
521.481	624.8
521.902	632.6
522.301	629.4
522.722	626.8
523.121	624
523.542	618
523.963	620.2
524.362	622.4
524.783	625
525.183	622.2
525.604	615
526.003	608
526.425	602.8
526.824	624.4
527.246	613.4
527.646	622.6
528.067	605.8
528.467	610
528.888	612
529.289	600.4
529.71	603.2
530.11	600.4
530.532	599.6
530.932	603.2
531.354	600.6
531.755	627.8
532.176	602
532.577	603
532.999	597
533.4	592.2
533.822	600.6
534.223	590.6
534.645	598.6
535.046	590.2
535.468	597.6
535.869	597.2
536.292	591.4
536.693	615.2
537.115	592.8
537.516	586.2
537.939	584.8
538.34	596.6
538.742	592.6
539.165	588.8
539.566	585.8
539.989	579.2
540.391	583.6
540.814	583
541.216	588.4
541.639	576.6
542.041	588.8
542.464	586.6
542.866	580
543.268	574.6
543.691	583.8
544.093	576
544.517	591
544.919	571.2
545.343	599.8
545.745	573.8
546.147	580
546.571	580.4
546.974	568
547.398	571.8
547.8	583.2
548.224	564.2
548.627	563.4
549.03	570.8
549.454	561.4
549.857	560
550.281	557.4
550.684	565
551.087	566.2
551.512	571.8
551.915	575.4
552.34	566
552.743	557
553.146	571.2
553.571	565
553.975	576.6
554.399	551.4
554.803	601.8
555.207	558.8
555.632	554
556.036	554.4
556.461	558.2
556.865	554.4
557.268	547.2
557.694	554
558.098	566
558.502	560.8
558.927	547.4
559.332	551.2
559.736	555.4
560.162	552.2
560.566	549.4
560.992	557.6
561.396	555.6
561.801	553.6
562.227	541.6
562.631	550.8
563.036	541.2
563.462	552.6
563.867	549.2
564.272	537.8
564.698	543.4
565.103	534.6
565.508	559
565.935	548.8
566.34	544.8
566.745	545.4
567.172	540.4
567.577	561.2
567.982	548.8
568.409	548.2
568.815	533.2
569.22	533.4
569.626	541.4
570.053	527
570.459	539
570.865	536.2
571.292	544.8
571.698	547.2
572.104	525
572.531	527.2
572.937	539.8
573.343	529
573.75	536.2
574.177	527
574.583	540.4
574.99	529.6
575.396	537.4
575.824	522.8
576.231	531.2
576.637	532.4
577.065	547.6
577.472	529.8
577.879	529
578.286	542.8
578.714	524.8
579.121	529.6
579.528	532.6
579.935	543.2
580.364	539.2
580.771	525
581.178	519.8
581.585	529
582.014	528.6
582.421	525.4
582.829	523.4
583.236	527.4
583.644	508.4
584.073	520
584.481	527.6
584.889	513.4
585.296	530.4
585.726	525.2
586.134	516.6
586.542	521.4
586.95	539
587.358	512.6
587.787	525.8
588.196	515.2
588.604	522.8
589.012	518.8
589.421	518.4
589.851	515.4
590.259	530.8
590.668	521.4
591.076	549
591.485	513
591.894	521.4
592.324	532.4
592.733	530.8
593.142	514
593.551	513
593.96	550
594.369	510.6
594.8	510.6
595.209	512.4
595.618	506.4
596.028	518.4
596.437	513.4
596.847	514
597.256	523.4
597.687	518
598.097	517
598.507	511.2
598.917	525.2
599.327	521
599.736	518.4
600.146	524.8
600.556	516.8
600.988	529.8
601.398	507.6
601.808	523.6
602.219	507.6
602.629	515
603.039	511
603.45	536.2
603.86	507.2
604.271	523.6
604.703	514
605.114	512
605.525	513.4
605.935	527.6
606.346	523.2
606.757	515.2
607.168	517.2
607.579	509.8
607.99	524.8
608.402	513
608.813	513.6
609.224	511.4
609.636	501.2
610.047	516
610.48	513.4
610.892	522.6
611.303	523.4
611.715	508.2
612.127	505.4
612.539	508.4
612.95	512.8
613.362	507.8
613.774	512.8
614.186	509
614.599	509.2
615.011	521
615.423	516
615.835	508.2
616.248	502.4
616.66	513.8
617.073	504.2
617.485	510.4
617.898	512.8
618.311	509.2
618.723	507
619.136	528.6
619.549	530.8
619.962	527.6
620.375	503.8
620.788	514
621.201	510.8
621.614	513
622.028	509.2
622.441	515.4
622.854	527.2
623.268	503.8
623.681	514.4
624.095	513.6
624.509	514.6
624.922	511.4
625.336	505.4
625.728	515
626.142	521.6
626.556	525.2
626.97	511.4
627.384	503
627.799	511.8
628.213	519.4
628.627	504.2
629.041	507.6
629.456	508.4
629.87	507.2
630.285	522.4
630.699	515.2
631.093	507.2
631.507	513.2
631.922	510.8
632.337	518.4
632.752	502.2
633.167	506.8
633.582	506.6
633.997	512.2
634.412	507
634.806	512.6
635.221	501.4
635.637	516.6
636.052	494.4
636.468	511.4
636.883	522.2
637.299	506.8
637.715	500.2
638.109	499.4
638.525	497
638.941	519.2
639.357	511.6
639.773	512.2
640.189	508.4
640.584	508.6
641	507.8
641.416	501.2
641.832	498
642.249	497.6
642.665	506.2
643.06	500.2
643.477	519.8
643.894	494.6
644.31	500.2
644.727	503.4
645.123	503.6
645.54	497.8
645.957	503.8
646.374	512
646.77	505.8
647.187	524.4
647.604	503
648.021	494.4
648.439	503.2
648.835	505.8
649.252	506.2
649.67	503
650.088	509.8
650.484	510
650.902	510.2
651.32	505.8
651.738	498.6
652.134	509.4
652.552	525
652.971	511.2
653.389	504
653.786	512.8
654.204	516.4
654.622	495.8
655.019	507.2
655.438	506.2
655.857	508
656.275	506.8
656.673	504.2
657.091	519
657.51	493.6
657.908	509.2
658.327	517
658.746	491.8
659.144	503.2
659.563	507.6
659.982	501.8
660.38	489.4
660.8	499.4
661.219	509
661.617	511
662.037	497.8
662.457	516.2
662.855	495
663.275	516.2
663.695	502
664.094	498.6
664.514	506.8
664.934	499.2
665.333	508.2
665.753	499.8
666.152	490.6
666.572	495
666.993	511.2
667.392	501.2
667.812	495.2
668.212	494.2
668.632	508.8
669.053	498.4
669.453	511.4
669.874	505
670.273	495.2
670.694	489.2
671.116	509.4
671.515	503.6
671.937	495.6
672.337	492.8
672.758	497.4
673.158	504.2
673.58	496.2
673.98	502.6
674.402	504.2
674.824	498.6
675.224	491.4
675.646	497.4
676.047	502.4
676.469	506
676.869	502.4
677.292	503.4
677.693	496.4
678.115	493.8
678.516	505.2
678.939	497.4
679.34	489
679.762	506.2
680.164	500.6
680.586	487.2
680.988	501.6
681.411	517.6
681.812	492.6
682.236	488.2
682.637	486.6
683.061	482.6
683.462	493.8
683.864	497.2
684.288	507.6
684.69	491.6
685.114	508.6
685.516	504.4
685.94	497.8
686.342	507.8
686.766	489.2
687.168	498.4
687.571	509.6
687.995	501.6
688.398	489.6
688.822	501.4
689.225	505
689.628	516.8
690.052	502.8
690.456	501.2
690.88	494.2
691.284	490.8
691.687	506.6
692.112	488.2
692.515	490.6
692.919	493.2
693.344	497.4
693.747	493.6
694.173	490.2
694.577	501
694.98	499.6
695.406	495
695.81	496.8
696.214	494.6
696.64	494
697.044	500.8
697.448	501.8
697.874	495.6
698.279	492.4
698.684	492.4
699.11	486.2
699.514	493.4
699.919	489.4
700.324	490.6
700.75	485.8
701.156	497
701.561	505.8
701.987	498.6
702.393	504.8
702.798	507.2
703.203	495.2
703.63	497.4
704.036	495
704.442	490.2
704.847	486
705.274	488.4
705.68	503.2
706.086	502.6
706.492	485.6
706.92	502.2
707.326	501
707.732	495
708.139	484
708.545	496.2
708.973	495.2
709.38	496.8
709.786	490
710.193	507.4
710.6	498.6
711.028	491.6
711.435	496.2
711.842	495.2
712.249	493.4
712.656	498.4
713.064	501.4
713.492	495.8
713.9	487.8
714.307	499.8
714.715	497.6
715.123	493.6
715.53	496.8
715.938	507.6
716.367	501.2
716.775	498.2
717.184	495
717.592	499.8
718	498
718.408	526.4
718.816	529.4
719.225	494.4
719.633	505.8
720.042	496.6
720.472	492.8
720.881	512.6
721.29	494.8
721.699	491.2
722.108	497.6
722.517	495
722.926	500.8
723.335	499.6
723.744	499.6
724.154	497.4
724.563	500.4
724.973	500.6
725.382	495.4
725.792	499
726.202	494.4
726.612	506.4
727.022	496.6
727.432	492.4
779.813	495
780.223	533.2
780.634	495
781.044	483
781.454	496.8
781.865	506.8
782.276	487.6
782.686	500.8
783.097	489.8
783.508	489.6
783.919	502.4
784.33	513.2
784.741	503
785.152	490.8
785.563	480.6
785.974	492.6
786.386	500
786.776	498.2
787.188	499.8
787.599	489.6
788.011	508.2
788.423	505
788.835	490.8
789.247	490
789.659	488.2
790.071	499.2
790.483	531.4
790.874	489.4
791.286	504.2
791.699	486
792.111	493
792.524	489.6
792.937	499.8
793.349	492.4
793.741	491
794.154	495.4
794.567	503
794.98	495
795.393	484.8
795.785	511.8
796.198	485
796.612	492.6
797.026	488.8
797.439	486.6
797.831	495.4
798.245	491.8
798.659	489.2
799.073	493.2
799.487	495.8
799.88	497.6
800.294	505.6
800.708	488.6
801.123	492.8
801.516	507.2
801.93	486.4
802.345	483
802.76	494.6
803.153	506.2
803.568	505.2
803.983	503.4
804.377	492
804.792	482.6
805.207	484.2
805.601	502.4
806.016	532.2
806.432	476.4
806.826	515
807.242	501.4
807.658	491
808.052	487
808.468	488.4
808.884	488.6
809.279	489.2
809.695	508.6
810.111	500.2
810.506	494.4
810.922	508.6
811.339	492
811.734	488.4
812.151	488.6
812.546	489.4
812.963	493.6
813.38	492
813.776	483.4
814.193	508.4
814.589	484.6
815.006	486.4
815.402	480.6
815.82	485.6
816.237	478
816.633	493.2
817.051	481.6
817.448	496.4
817.866	479.8
818.262	504
818.68	487
819.077	489.4
819.495	487
819.892	526
820.311	486
820.708	490.6
821.127	489
821.524	499
821.943	489.6
822.34	502.2
822.759	479
823.157	489.4
823.576	505.2
823.974	493.4
824.393	577.4
824.791	492.2
825.189	481.2
825.609	497
826.007	488.4
826.427	483
826.826	488.6
827.246	497.4
827.644	483.2
828.043	498
828.463	482.4
828.862	498.4
829.261	495
829.682	475.6
830.081	487.4
830.502	484.8
830.901	493.8
831.301	488.2
831.722	473.2
832.121	487.6
832.521	487
832.943	495.4
833.342	488
833.742	478.6
834.164	487.6
834.564	480.2
834.965	492.6
835.386	478.6
835.787	490.4
836.188	491.6
836.588	488
837.01	490.2
837.411	475.6
837.812	491.2
838.213	484.6
838.636	487.4
839.037	538.8
839.438	489
839.84	494
840.263	493.4
840.664	494.4
841.066	487.6
841.468	485.4
841.891	487.8
842.293	493.8
842.695	493.4
843.098	501.8
843.5	484.2
843.902	494
844.326	486.6
844.729	493.4
845.131	500
845.534	491.2
845.937	501.4
846.34	506.4
846.764	484.8
847.167	487.8
847.571	489.8
847.974	495.8
848.377	488.4
848.781	527.2
849.184	503
849.588	488.2
849.992	478.4
850.396	489.2
850.821	512.6
851.225	490.2
851.63	488
852.034	491.4
852.438	499.2
852.843	514
853.247	487.4
853.652	485.4
854.057	509
854.462	497.6
854.867	496.8
855.272	517.2
855.677	498.2
856.082	484.4
856.487	479.2
856.893	495
857.298	494.2
857.704	489.8
858.11	494
858.516	494.4
858.922	491.8
859.328	497
859.734	494.4
860.14	496.6
860.525	495.4
860.931	482.8
861.338	493.8
861.745	499.2
862.151	492.8
862.558	495.2
862.965	493
863.372	486
863.779	486.8
864.186	506.4
864.572	494
864.98	504.4
865.387	515.2
865.795	482.6
866.203	498.8
866.61	483.8
867.018	499.4
867.405	490.6
867.813	489
868.221	488
868.63	489.6
869.038	490.6
869.425	531
869.834	493.8
870.243	478.8
870.652	487.6
871.039	494
871.448	496.6
871.857	492
872.266	495
872.654	493.6
873.064	485.8
873.473	493.2
873.883	490
874.271	486
874.681	495.6
875.091	477
875.48	500.4
875.89	510
876.3	490
876.689	479.2
877.1	498
877.51	486.2
877.9	510
878.31	486.2
878.721	512.4
879.111	485.6
879.522	487.4
879.933	482.8
880.323	482.6
880.734	481.6
881.125	501.4
881.536	487.2
881.948	477
882.338	482.2
882.75	498.2
883.141	490.6
883.553	492.8
883.944	514.2
884.356	497.4
884.769	487.2
885.16	489.4
885.573	493.8
885.964	487.6
886.377	485.8
886.768	484
887.181	481.2
887.573	488.8
887.987	487.6
888.378	494.2
888.792	488.6
889.184	532.8
889.598	487
889.99	495.6
890.383	493
890.797	485.8
891.19	498.8
891.604	489.2
891.997	485.4
892.411	485.4
892.805	489.4
893.198	489
893.613	481.6
894.006	498.6
894.421	484
894.815	492.2
895.209	482.2
895.624	520.8
896.018	501.6
896.412	486.8
896.828	488.8
897.222	495.4
897.617	488.6
898.033	505
898.427	490.4
898.822	489.2
899.239	481.4
899.634	476.4
900.029	501
900.424	480.6
900.841	478.4
901.236	493.6
901.632	502.4
902.027	532.6
902.445	489.8
902.841	486.4
903.237	490.8
903.633	500
904.05	490.2
904.447	488.2
904.843	500.6
905.24	491.6
905.636	485.8
906.033	485.2
906.451	490
906.848	480.6
907.246	481.2
907.643	483.2
908.04	490.6
908.438	504.2
908.835	494.2
909.254	490.4
909.652	492.2
910.05	487.6
910.448	473.4
910.846	493.8
911.244	474
911.643	486.2
912.041	483.4
912.44	496.4
912.839	477.8
913.237	477.4
913.636	475.8
914.035	491.6
914.434	488.6
914.834	494.4
915.233	484.8
915.633	487.2
916.032	482.6
916.432	484.8
916.832	491
917.232	483.4
917.632	480.2
918.032	494
918.432	481.4
918.833	487.8
919.233	482.2
919.634	480.6
920.035	499
920.436	481.4
920.837	494
921.238	487.8
921.639	484.4
922.019	485.8
922.42	488.8
922.822	491.4
923.224	490.6
923.625	483
924.027	490.4
924.429	495.6
924.81	483.6
925.212	493.4
925.615	489
926.017	483
926.42	497.6
926.801	491.6
927.204	489.8
927.607	489.8
928.01	496.8
928.413	480
928.795	474.8
929.199	484.6
929.602	486.8
930.006	478
930.388	476
930.792	490.2
931.196	487.4
931.579	512
931.983	477.4
932.388	517.8
932.771	481.2
933.176	479.6
933.58	489.4
933.964	485
934.369	477.6
934.774	486.2
935.158	485.4
935.563	485
935.947	496.4
936.353	493.8
936.759	480.6
937.143	488.6
937.549	488.6
937.934	488.4
938.34	499
938.746	478.4
939.131	480.2
939.538	481.8
939.923	486.2
940.33	474.6
940.716	480.6
941.123	488.8
941.508	484.2
941.916	499
942.302	491.2
942.709	481.8
943.096	476.2
943.503	489.4
943.89	487.8
944.298	492.6
944.685	511.6
945.072	490.2
945.48	495.6
945.867	490
946.276	479.4
946.663	507.6
947.051	499.2
947.46	496
947.848	495.4
948.257	492.2
948.645	489.6
949.033	482.4
949.443	480
949.831	517.6
950.22	480.2
950.63	489.6
951.018	502.6
951.407	483.8
951.796	480
952.207	493.2
952.596	490.4
952.985	478
953.375	522
953.786	482.6
954.176	484.2
954.566	494.2
954.956	472.6
955.367	488
955.758	501.4
956.148	475.8
956.539	494.2
956.929	480.4
957.341	477
957.732	483.6
958.123	485
958.515	474.2
958.906	488.8
959.297	489
959.689	485.8
960.102	483.2
960.494	488.2
960.886	484.2
961.278	483.2
961.67	510.2
962.062	518.6
962.455	487.2
962.847	482.2
963.24	479
963.633	485.2
964.026	479.2
964.419	479.8
964.812	490.4
965.206	482.2
965.599	496.2
965.993	484.8
966.386	491.4
966.78	490.8
967.174	492.4
967.569	482.2
967.963	479.2
968.357	482.8
968.752	483.4
969.146	480.8
969.541	483.2
969.936	482
970.331	487
970.705	490.6
971.1	480.8
971.496	489
971.892	479.8
972.287	480.4
972.683	484
973.079	480.4
973.454	493
973.85	485.8
974.247	485
974.643	495.8
975.04	488.6
975.415	479.2
975.812	485.2
976.209	486.4
976.607	476.4
976.982	499.4
977.38	503
977.778	487
978.175	481.8
978.552	491.4
978.95	491.2
979.348	485.6
979.725	526
980.123	485.2
980.522	477.2
980.899	483.6
981.298	481.2
981.697	491.4
982.075	482.2
982.474	489.2
982.852	489.2
983.251	491.4
983.651	484.2
984.029	494.8
984.429	485.2
984.808	479
985.208	477
985.609	479.8
985.987	474
986.388	478.8
986.768	481
987.168	475.4
987.548	494.4
987.949	487
988.329	489.2
988.731	479.2
989.111	487.2
989.491	485.2
989.893	488.2
990.273	490.6
990.676	478.8
991.057	474.8
991.459	488.6
991.84	483.2
992.221	471.2
992.624	505.4
993.006	488.8
993.388	488.6
993.791	488
994.173	490.2
994.576	500
994.959	469.6
995.341	477.6
995.724	485.8
996.128	478.4
996.511	480.4
996.894	481.2
997.298	483.8
997.681	489
998.065	485.6
998.448	483
998.854	496.2
999.237	472.6
999.621	483.2
1000.01	494.4
1000.39	488.4
1000.8	480
1001.18	486.6
1001.56	485.8
1001.95	488.8
1002.33	481.6
1002.72	482.8
1003.13	485
1003.51	478.8
1003.9	481.2
1004.28	496.2
1004.67	484
1005.06	480.2
1005.44	510.4
1005.83	474.4
1006.21	478.6
1006.6	482
1006.99	491
1007.37	492.8
1007.76	479.6
1060.12	474.8
1060.51	464
1060.89	481
1061.28	482.6
1061.67	492.6
1062.06	484.2
1062.45	488.6
1062.83	476.4
1063.22	488.6
1063.61	518.8
1064	493
1064.39	480.2
1064.78	481.2
1065.14	489.6
1065.53	482.8
1065.92	480.8
1066.31	474.4
1066.7	489.6
1067.09	493
1067.46	491.2
1067.85	486.2
1068.24	479
1068.63	489
1069.02	478.2
1069.39	492.2
1069.78	478.4
1070.17	477.8
1070.57	478.4
1070.93	488.2
1071.33	476
1071.72	486.4
1072.11	480.6
1072.48	471.8
1072.87	484.6
1073.26	488
1073.64	480.6
1074.03	476.8
1074.4	480.6
1074.79	488
1075.19	483.4
1075.56	485
1075.95	480.4
1076.34	484.2
1076.72	483
1077.11	480.8
1077.48	489.2
1077.88	474
1078.25	478.8
1078.64	491.4
1079.02	483.8
1079.41	496
1079.78	481.2
1080.18	471.6
1080.55	529.8
1080.95	483.6
1081.32	475
1081.72	484
1082.09	481.4
1082.49	469.8
1082.86	485
1083.24	471.8
1083.63	470.8
1084.01	474.6
1084.38	484
1084.78	477.6
1085.16	479.2
1085.55	491
1085.93	500
1086.31	474
1086.7	509.4
1087.08	485.2
1087.46	480.6
1087.83	477.6
1088.23	495.4
1088.61	482.2
1088.99	485
1089.36	481.4
1089.76	485.2
1090.14	482.4
1090.52	482.8
1090.9	488
1091.27	490.2
1091.67	498.6
1092.05	485.4
1092.43	479.2
1092.81	490.2
1093.19	486.6
1093.57	485
1093.95	479
1094.35	486.8
1094.73	496
1095.11	478.2
1095.49	479
1095.87	485
1096.25	486.2
1096.63	489
1097.01	484.2
1097.39	487.2
1097.77	488.8
1098.15	485.4
1098.53	475.2
1098.91	479.6
1099.29	471.8
1099.68	497.6
1100.06	484
1100.44	484
1100.82	483.8
1101.18	483.8
1101.56	480.4
1101.95	477.4
1102.33	483.8
1102.71	487.8
1103.1	470.2
1103.48	466.4
1103.86	481.6
1104.22	485
1104.61	473.6
1104.99	475.6
1105.38	477.4
1105.76	479.8
1106.12	482.6
1106.51	506
1106.89	486.4
1107.26	477.6
1107.64	492.2
1108.03	482.4
1108.41	484.6
1108.78	479.2
1109.16	475
1109.55	489.4
1109.91	473.2
1110.3	466.4
1110.69	490.6
1111.05	484.6
1111.44	473.8
1111.8	478
1112.19	481.2
1112.58	490.4
1112.94	474.6
1113.33	472.8
1113.7	479.2
1114.09	476
1114.45	480.4
1114.84	483.4
1115.21	489.4
1115.6	481.6
1115.96	487.8
1116.35	485.6
1116.72	481.4
1117.11	490.6
1117.48	468.4
1117.85	481.2
1118.24	491
1118.6	479.6
1118.99	480.2
1119.36	481.4
1119.73	477.2
1120.12	485.8
1120.49	469.6
1120.86	490
1121.25	476.8
1121.62	470.8
1121.99	480
1122.38	491
1122.76	482.6
1123.13	477.6
1123.5	488.6
1123.89	493
1124.26	470.4
1124.63	478.8
1125	485.8
1125.4	482.2
1125.77	477
1126.14	465.4
1126.51	478.6
1126.88	473.2
1127.26	477
1127.63	470
1128.02	482.4
1128.4	479
1128.77	477
1129.14	480
1129.52	481.8
1129.89	478
1130.26	473
1130.64	466.2
1131.01	477.4
