#lambda/nm	C1
208.295	466.2
208.67	432.6
209.045	399.2
209.419	398.4
209.794	533.2
210.169	512
210.544	611
210.919	539
211.295	526.8
211.67	530.6
212.045	528
212.421	527.6
212.796	553
213.172	525
213.547	519
213.923	523.4
214.299	525.6
214.675	531.6
215.051	530
215.427	534.6
215.803	540.4
216.179	537.4
216.555	521.8
216.932	536.8
217.308	531
217.684	532.8
218.061	531.2
218.438	538.8
218.814	525.2
219.191	527.8
219.568	514.2
219.945	517.6
220.322	528.6
220.699	529.8
221.076	533.2
221.453	529.6
221.83	521.4
222.208	517
222.585	524.8
222.962	528.6
223.34	525.6
223.717	529
224.095	524.2
224.473	527.8
224.851	525.4
225.229	516.8
225.607	530.6
225.985	525.6
226.363	525
226.741	523.8
227.119	529.6
227.497	537.4
227.876	516.8
228.254	536.2
228.633	525.8
229.011	527.8
229.39	534
229.769	530.6
230.148	527.6
230.527	549.6
230.905	533.8
231.284	534.4
231.664	523.6
232.043	535.2
232.422	523
232.801	522.2
233.181	532.6
233.56	528.4
233.94	526.6
234.319	525
234.699	526
235.079	560.4
235.458	552.4
235.838	542
236.218	524.4
236.598	521.4
236.978	525
237.358	520.2
237.738	524.8
238.119	534.2
238.499	523.6
238.88	530
239.26	541
239.641	524.8
240.021	527.4
240.402	531.6
240.783	531.8
241.163	529.4
241.544	535.8
241.925	525
242.306	547.4
242.687	530.2
243.069	529
243.45	532.4
243.831	525.6
244.212	527.8
244.594	550
244.975	534.6
245.357	527.6
245.739	526.2
246.12	531.8
246.502	541.6
246.884	531.8
247.266	522.2
247.648	528.6
248.03	548.6
248.412	530.2
248.794	540.8
249.176	521.2
249.559	543.4
249.941	525
250.323	521.8
250.706	521.6
251.089	527.8
251.471	535.8
251.854	532.6
252.237	527.6
252.62	547.2
253.002	528.4
253.385	529.4
253.769	537.4
254.152	523.8
254.535	536
254.918	519.4
255.301	525.6
255.685	528.6
256.068	523.4
256.452	539
256.835	532.4
257.219	530.4
257.603	531.8
257.986	515.2
258.37	518.6
258.754	516.2
259.138	522.8
259.522	527.6
259.906	522.2
260.29	525
260.675	515.2
261.059	526.8
261.443	516.8
261.828	532.2
262.212	529.2
262.597	519.8
262.981	520.4
263.366	529.8
263.751	529.2
264.136	520.6
264.521	530.4
264.906	519.4
265.291	534.4
265.676	530
266.061	531.8
266.446	538.2
266.831	531
267.217	544.2
267.602	534.2
267.987	526.2
268.373	520.2
268.759	533.6
269.144	525.4
269.53	530.8
269.916	522.6
270.302	520.4
270.688	530
271.074	533.6
271.46	537.4
271.846	553.8
272.232	524
272.618	522.4
273.004	521.8
273.391	533.2
273.777	536.6
274.164	529.2
274.55	537.6
274.937	534
275.324	530.8
275.71	537.8
276.097	532.6
276.484	526.8
276.871	529.4
277.258	534.2
277.645	518
278.032	522.6
278.419	523.4
278.807	532.8
279.194	523.8
279.581	525.2
279.969	529.6
280.356	533.4
280.744	530.2
281.131	542.2
281.519	536.2
281.907	523.2
282.295	531.8
282.682	543.6
283.07	528.4
283.458	536
283.846	540.2
284.235	539.2
284.623	533.4
285.011	520.8
285.399	539.8
285.788	526
286.176	524.6
286.565	534.4
286.953	528.8
287.342	522.4
287.731	520
288.119	525.6
288.508	522.2
288.897	529.2
289.286	522.4
289.675	529
290.064	539.6
290.453	528.4
290.821	525.8
291.21	540.2
291.599	525
291.989	523.8
292.378	529.2
292.768	544.2
293.157	533.4
293.547	536.8
293.936	517.8
294.326	529.6
294.716	529.2
295.106	523.6
295.496	531.2
295.886	536.6
296.276	521.8
296.666	518.6
297.056	523.4
297.446	526.2
297.836	541.2
298.227	527
298.617	537
299.008	542.8
299.398	530.8
299.789	527.6
300.179	526.4
300.57	538.6
300.961	525.4
301.352	518.8
301.742	542.8
302.133	525.6
302.524	522.2
302.915	528.8
303.307	520.8
303.698	531
304.089	536.6
304.48	523.4
304.872	524.8
305.263	530.2
305.655	527.2
306.046	541.4
306.438	534
306.829	518.2
307.221	538.2
307.613	532
308.005	535
308.397	535.8
308.789	545.4
309.181	549.6
309.573	541.2
309.965	540.6
310.357	523.8
310.749	537.6
311.142	518.4
311.534	523.6
311.926	532.6
312.319	533.2
312.711	520.8
313.104	536
313.497	526.2
313.889	553
314.282	545
314.675	545.2
315.068	531.8
315.461	536.4
315.854	546.2
316.247	538.4
316.64	529
317.033	523.6
317.405	538
317.798	519.8
318.192	531.6
318.585	522.4
318.979	527.6
319.372	526.2
319.766	526.6
320.16	537
320.553	530.4
320.947	543.2
321.341	515.6
321.735	530.2
322.129	524.2
322.523	553
322.917	526.2
323.311	538.4
323.705	521
324.099	534
324.494	540.2
324.888	529.8
325.282	528
325.677	537.6
326.071	539.6
326.466	540.6
326.861	529.6
327.255	538.6
327.65	544
328.045	538.2
328.44	527
328.835	530.2
329.23	528
329.625	548.2
330.02	527.2
330.415	540.2
330.81	532.8
331.206	534
331.601	525.2
331.996	539.6
332.37	546.2
332.766	519.2
333.161	549.2
333.557	526.2
333.953	526.8
334.348	769.4
334.744	527.8
335.14	522.8
335.536	529.8
335.932	536.8
336.328	528.4
336.724	532
337.12	534.6
337.516	536.4
337.913	529.8
338.309	539.4
338.705	524.2
339.102	530.6
339.498	531
339.895	533.4
340.291	519.4
340.688	539.8
341.085	518.6
341.481	527.6
341.878	527.2
342.275	546.6
342.672	528.4
343.069	526.8
343.466	524.4
343.842	535.8
344.239	524.6
344.636	532.4
345.033	524.4
345.431	524.2
345.828	530
346.225	522.4
346.623	554.2
347.02	530.4
347.418	528
347.816	540
348.213	519.2
348.611	530.8
349.009	520.6
349.407	537
349.805	514.8
350.203	515.2
350.601	531.6
350.999	523.6
351.397	580
351.795	525.8
352.193	530.4
352.57	534.6
352.969	534.4
353.367	518.6
353.766	512.4
354.164	518.8
354.563	526
354.961	518
355.36	524
355.759	514.4
356.158	511.6
356.557	515.8
356.956	513.4
357.355	507
357.754	523.6
358.153	527.4
358.552	543.8
358.951	521
359.35	529.4
359.75	518.6
360.149	520.4
360.527	512
360.926	518.6
361.326	519.4
361.726	528
362.125	520.6
362.525	526.4
362.925	522.8
363.325	520.8
363.724	525.8
364.124	516
364.524	514.2
364.924	524.6
365.324	536
365.725	507.4
366.125	525.6
366.525	524
366.904	517
367.304	503.8
367.705	528.6
368.105	525.6
368.506	516.6
368.906	526.6
369.307	522.2
369.708	525.2
370.108	510.2
370.509	531
370.91	508.8
371.311	521.8
371.712	514.8
372.113	513.6
372.514	502.8
372.894	513.8
373.295	516.2
373.696	526
374.097	528.2
374.499	537.4
374.9	529.6
375.301	517.2
375.703	524
376.105	509.8
376.506	516.4
376.908	521.8
377.309	519.6
377.711	522.6
378.113	515.2
378.493	527.8
378.895	516.8
379.297	530.6
379.699	515.2
380.102	518.4
380.504	517.6
380.906	515.4
381.308	540
381.71	517.6
382.113	525.4
382.515	519.6
382.918	529.4
383.299	521
383.701	530.8
384.104	525.8
384.507	511.2
384.909	520.2
385.312	512
385.715	511.4
386.118	520.6
386.521	528.4
386.924	526.6
387.327	510.2
387.709	513.6
388.112	505
388.515	519.2
388.918	518.8
389.322	532
389.725	521.2
390.129	535.6
390.532	529.4
390.936	517.2
391.339	512
391.743	517.4
392.125	518.2
392.529	530.4
392.933	525.4
393.337	518.6
393.74	529.4
394.144	529.6
394.548	518.4
394.953	527.2
395.357	527.6
395.761	525.2
396.144	517.4
396.548	514.8
396.952	515
397.357	516.2
397.761	518.6
398.166	512.4
398.57	516.6
398.975	507.4
399.379	519
399.763	561.2
400.168	518.8
400.572	524.2
400.977	515.6
401.382	535.4
401.787	526.8
402.192	529.6
402.597	525.2
403.002	511.6
403.386	536.2
403.791	533.4
404.197	510.6
404.602	526.4
405.007	519.8
405.413	518
405.818	519
406.224	516.4
406.608	518
407.014	512.8
407.42	534.4
407.825	512.6
408.231	519.8
408.637	524.6
409.043	532.8
409.449	511.4
409.834	517.8
410.24	521.6
410.646	535.8
411.052	530.2
411.458	524
411.865	527.4
412.271	525.2
412.677	515.8
413.062	519
413.469	519.6
413.875	542.2
414.282	532.8
414.689	521.4
415.095	529.8
415.502	511.6
415.888	524.2
416.294	513
416.701	546.4
417.108	520.8
417.515	520.6
417.923	517.8
418.33	539.8
418.715	526.2
419.123	519.2
419.53	519
419.937	520.8
420.345	529.2
420.752	519
421.16	533.4
421.546	520.8
421.953	529.6
422.361	517.8
422.769	523
423.177	517.4
423.585	533.4
423.992	534.4
424.379	531.8
424.787	528.4
425.195	536.8
425.603	520.8
426.011	535.4
426.419	532.6
426.806	525.2
427.214	531.6
427.623	541.6
428.031	544.8
428.44	533.8
428.848	545.8
429.235	562.8
429.644	562.8
430.053	566.6
430.461	577.6
430.87	598.4
431.279	596.8
431.666	601.2
432.075	614.4
432.484	639.2
432.893	645.4
433.302	678
433.711	723.2
434.099	719.4
434.508	734
434.918	745.4
435.327	775.2
435.737	802
436.125	812.8
436.534	830.4
436.944	859.6
437.353	888.4
437.763	931.2
438.173	945.6
438.561	965.2
438.971	964.8
439.381	1011
439.791	1028
440.201	1025.4
440.589	1059.4
440.999	1090
441.409	1093.4
441.819	1117.4
442.23	1162.8
442.619	1162.6
443.029	1168
443.439	1187
443.85	1200.2
444.26	1219.4
444.649	1217
445.06	1223.6
445.471	1235
445.881	1240
446.292	1277.4
446.682	1299.8
447.092	1264.4
447.503	1326.8
447.914	1281.6
448.325	1304.4
448.715	1320.2
449.126	1310
449.537	1307.2
449.948	1320.6
450.338	1316.2
450.75	1330.8
451.161	1331.2
451.572	1354
451.984	1345.2
452.374	1340.2
452.786	1349.6
453.197	1355
453.609	1364.4
453.999	1354.8
454.411	1364
454.823	1372.6
455.235	1374.4
455.647	1366
456.037	1357.2
456.449	1372.8
456.862	1378.4
457.274	1363.4
457.665	1375.4
458.077	1400.4
458.489	1396.6
458.902	1380
459.293	1377.4
459.705	1386.6
460.118	1381.6
460.53	1382.4
460.921	1399.2
461.334	1395.2
461.747	1395.4
462.16	1412.6
462.551	1415.2
462.964	1393.6
463.377	1384.4
463.79	1378.2
464.182	1409.2
464.595	1379.8
465.008	1404
465.421	1394.6
465.813	1392
466.226	1399.8
466.64	1376.2
467.053	1420.8
467.445	1390.8
467.859	1419.2
468.272	1412.4
468.686	1408.6
469.078	1397
469.492	1392
469.906	1394.8
470.298	1394.2
470.712	1369
471.126	1405.8
471.54	1372.4
471.933	1380.4
472.347	1387.4
472.761	1363
473.175	1371
473.568	1374.2
473.982	1374.6
474.397	1351.4
474.79	1344.6
475.204	1359.2
475.619	1356.4
476.033	1360.8
476.426	1349
476.841	1343.8
477.256	1336.2
477.649	1338.2
478.064	1317.2
478.479	1325.2
478.872	1319.4
479.287	1304.6
479.702	1307.8
480.118	1322
480.511	1306.4
480.927	1326.4
481.342	1297.8
481.736	1298.6
482.151	1288.8
482.566	1302
482.96	1280
483.376	1282.6
483.792	1270.2
484.186	1283.4
484.602	1250.2
485.017	1261.4
485.412	1273
485.827	1267.2
486.243	1241.6
486.638	1255
487.054	1242.4
487.47	1247.6
487.865	1229.6
488.281	1220.2
488.697	1231.4
489.092	1219.2
489.508	1203.8
489.925	1200.6
490.32	1188
490.736	1190.8
491.153	1189.4
491.548	1172.6
491.964	1197.2
492.381	1168
492.776	1173.2
493.193	1166.6
493.61	1152.2
494.006	1146.4
494.422	1143.2
494.84	1140.8
495.235	1136
495.652	1122.8
496.069	1119.2
496.465	1113.2
496.883	1116.2
497.3	1130.2
497.696	1096
498.113	1099.6
498.509	1089
498.927	1071
499.344	1069.4
499.741	1074.4
500.158	1080.6
500.576	1071.2
500.973	1060.4
501.39	1050.8
501.787	1042.4
502.205	1043.8
502.623	1036.6
503.02	1029
503.438	1015.2
503.856	1023.2
504.253	1021.2
504.671	1020
505.068	1005.4
505.486	1001
505.905	1001.4
506.302	995.2
506.72	1001
507.118	970.6
507.536	976.4
507.955	966.8
508.352	976
508.771	975
509.169	967.2
509.587	940.8
510.006	943.8
510.404	933.8
510.823	929.6
511.221	931.4
511.64	940.4
512.038	932.8
512.457	924.4
512.877	919
513.275	907.8
513.694	909.4
514.092	903.6
514.512	912.4
514.91	907.8
515.33	889
515.749	883.6
516.148	885
516.568	884.2
516.966	876
517.386	875.2
517.785	882
518.205	864
518.603	851.8
519.024	844.6
519.444	856.2
519.843	852.8
520.263	851.8
520.662	854
521.082	836.4
521.481	837.4
521.902	843.6
522.301	827.2
522.722	828
523.121	817.4
523.542	804.2
523.963	821
524.362	801.4
524.783	812.6
525.183	808.2
525.604	792
526.003	785.8
526.425	791.8
526.824	795
527.246	796.4
527.646	794.8
528.067	778.2
528.467	776
528.888	775.2
529.289	761.8
529.71	768.8
530.11	754.4
530.532	747.6
530.932	750.8
531.354	747.8
531.755	785
532.176	758.2
532.577	742
532.999	738.2
533.4	733.4
533.822	749.4
534.223	736
534.645	731.6
535.046	735.2
535.468	729.6
535.869	745
536.292	724.2
536.693	750.4
537.115	724
537.516	718.2
537.939	713.6
538.34	730
538.742	717
539.165	719.2
539.566	699
539.989	703.2
540.391	701
540.814	701
541.216	704
541.639	704.2
542.041	711.2
542.464	690.6
542.866	687.2
543.268	679.4
543.691	684.8
544.093	687.2
544.517	699.8
544.919	677
545.343	690.6
545.745	668.2
546.147	681.6
546.571	675.2
546.974	657
547.398	657.8
547.8	675.8
548.224	663
548.627	657.4
549.03	654
549.454	659.4
549.857	643.4
550.281	650.4
550.684	655.6
551.087	663
551.512	651.8
551.915	646.4
552.34	641.2
552.743	644
553.146	637.8
553.571	636.6
553.975	655
554.399	627.6
554.803	670
555.207	630.4
555.632	632.8
556.036	631.4
556.461	620.4
556.865	632.2
557.268	630.8
557.694	629.2
558.098	624.6
558.502	626.8
558.927	616.2
559.332	616.2
559.736	621.4
560.162	613.8
560.566	620.8
560.992	613
561.396	603
561.801	616.6
562.227	616.2
562.631	606.6
563.036	603.6
563.462	609.4
563.867	607.6
564.272	585.6
564.698	602.6
565.103	593.8
565.508	601.2
565.935	598.2
566.34	590.8
566.745	602.8
567.172	598
567.577	614.2
567.982	604
568.409	593
568.815	594.6
569.22	595.2
569.626	597.2
570.053	581.8
570.459	586.2
570.865	593.2
571.292	591
571.698	592.6
572.104	579.8
572.531	579.6
572.937	591.6
573.343	583.8
573.75	577
574.177	587.2
574.583	577.6
574.99	579.2
575.396	590
575.824	580
576.231	575
576.637	570.8
577.065	591.2
577.472	570
577.879	565.8
578.286	580
578.714	569.8
579.121	564
579.528	566.2
579.935	574
580.364	562
580.771	555.8
581.178	556.8
581.585	565.6
582.014	568.2
582.421	562
582.829	554.4
583.236	563
583.644	556.8
584.073	552
584.481	560
584.889	553
585.296	566.2
585.726	562.4
586.134	543.6
586.542	552
586.95	570.8
587.358	546.8
587.787	555.6
588.196	548.8
588.604	554.8
589.012	555.8
589.421	536.8
589.851	546
590.259	557.6
590.668	547.6
591.076	574
591.485	535.4
591.894	550.2
592.324	556.4
592.733	550.8
593.142	539.6
593.551	548
593.96	552.6
594.369	525.6
594.8	538.6
595.209	543.4
595.618	528.2
596.028	539
596.437	529.4
596.847	534.2
597.256	543.6
597.687	538.2
598.097	544.6
598.507	534
598.917	541
599.327	544.6
599.736	540.8
600.146	547.6
600.556	538.2
600.988	539.6
601.398	528.6
601.808	539.8
602.219	529.2
602.629	539.2
603.039	527.2
603.45	560
603.86	528.8
604.271	541.8
604.703	531
605.114	528.4
605.525	535.6
605.935	532.8
606.346	543.8
606.757	533
607.168	520.8
607.579	530
607.99	532
608.402	524.6
608.813	526.2
609.224	525.4
609.636	517.8
610.047	515.4
610.48	522.8
610.892	538.6
611.303	531.8
611.715	528.8
612.127	518.4
612.539	512.6
612.95	531.4
613.362	516
613.774	508.6
614.186	521
614.599	526.4
615.011	534.6
615.423	521.2
615.835	522.4
616.248	523.2
616.66	524.8
617.073	523
617.485	519.6
617.898	530.4
618.311	525.6
618.723	516
619.136	547.2
619.549	537
619.962	548
620.375	521.6
620.788	528.8
621.201	520.4
621.614	527.8
622.028	527
622.441	532.2
622.854	529.2
623.268	512
623.681	530.6
624.095	521.2
624.509	526
624.922	528.8
625.336	517.6
625.728	527.2
626.142	530
626.556	536
626.97	520.6
627.384	518.8
627.799	517
628.213	534.6
628.627	521.2
629.041	518
629.456	520.4
629.87	521.4
630.285	530.2
630.699	521.6
631.093	518
631.507	519.8
631.922	522.6
632.337	521.6
632.752	512.8
633.167	516.4
633.582	509.4
633.997	513.2
634.412	519.2
634.806	519
635.221	518.2
635.637	523.4
636.052	513.4
636.468	521
636.883	530.2
637.299	510.2
637.715	507.6
638.109	512
638.525	500.4
638.941	523.8
639.357	509.8
639.773	519.6
640.189	509.6
640.584	508.4
641	516.8
641.416	503.6
641.832	502
642.249	505
642.665	515.2
643.06	514.8
643.477	510.2
643.894	495.2
644.31	498
644.727	505.6
645.123	504.2
645.54	508.2
645.957	511.6
646.374	512.2
646.77	504.8
647.187	537.8
647.604	503.8
648.021	493.2
648.439	501.6
648.835	515.2
649.252	515.2
649.67	510.4
650.088	508
650.484	509.2
650.902	512.6
651.32	510.6
651.738	502.6
652.134	514.8
652.552	520.6
652.971	513.2
653.389	505.8
653.786	526.8
654.204	513.2
654.622	504.2
655.019	506.4
655.438	511.2
655.857	510.2
656.275	512.8
656.673	512.8
657.091	519.8
657.51	507.6
657.908	511
658.327	518.2
658.746	492.4
659.144	504.2
659.563	517.6
659.982	510.2
660.38	499
660.8	504
661.219	509.8
661.617	502.6
662.037	499.2
662.457	506.4
662.855	487.4
663.275	527.8
663.695	507.6
664.094	509.4
664.514	509
664.934	496
665.333	509
665.753	493.2
666.152	496.2
666.572	492.8
666.993	508.6
667.392	501.8
667.812	503.6
668.212	501.8
668.632	510.8
669.053	505.6
669.453	506.6
669.874	505.4
670.273	504.6
670.694	497.6
671.116	512.8
671.515	506.6
671.937	498.6
672.337	509.4
672.758	508
673.158	511
673.58	498
673.98	503.6
674.402	511.6
674.824	502.4
675.224	498.4
675.646	487.2
676.047	503.8
676.469	506.2
676.869	503.6
677.292	509.6
677.693	496.8
678.115	504.8
678.516	512.6
678.939	504
679.34	506
679.762	516.6
680.164	509.6
680.586	503.8
680.988	507.4
681.411	523.2
681.812	502
682.236	496.4
682.637	491.4
683.061	495.8
683.462	507.2
683.864	493
684.288	508.8
684.69	498.2
685.114	511
685.516	510.2
685.94	496.6
686.342	509.2
686.766	499
687.168	508
687.571	516.8
687.995	506
688.398	496.6
688.822	501.2
689.225	519.2
689.628	511.2
690.052	505.6
690.456	506.2
690.88	498.8
691.284	493.6
691.687	501
692.112	491.8
692.515	489.6
692.919	504.4
693.344	506
693.747	494.4
694.173	493.2
694.577	510.6
694.98	498
695.406	503.2
695.81	506
696.214	502.8
696.64	506
697.044	502.2
697.448	508.2
697.874	500.4
698.279	498
698.684	494.2
699.11	499.4
699.514	502
699.919	497.2
700.324	497.4
700.75	502.8
701.156	493.6
701.561	497
701.987	502.4
702.393	504.8
702.798	510.2
703.203	506.4
703.63	485.8
704.036	497
704.442	501
704.847	492.6
705.274	497.6
705.68	501.6
706.086	494.8
706.492	487.2
706.92	489.2
707.326	503.2
707.732	490
708.139	495
708.545	485.2
708.973	494
709.38	496.8
709.786	487
710.193	510.8
710.6	498.4
711.028	491.6
711.435	500.4
711.842	494.8
712.249	492.4
712.656	499
713.064	508
713.492	485.2
713.9	489
714.307	496.8
714.715	494.2
715.123	498.6
715.53	500.8
715.938	504.4
716.367	493.8
716.775	502.4
717.184	492.8
717.592	497
718	510.8
718.408	524
718.816	531.6
719.225	501
719.633	498.6
720.042	491.6
720.472	499.4
720.881	511
721.29	501.8
721.699	486.4
722.108	497.6
722.517	497.4
722.926	496.2
723.335	507.4
723.744	499.2
724.154	499.8
724.563	496.2
724.973	500
725.382	497
725.792	491.8
726.202	492
726.612	506.6
727.022	504
727.432	489.8
779.813	493.6
780.223	526.8
780.634	490
781.044	491.8
781.454	492.6
781.865	515.4
782.276	491.8
782.686	502.8
783.097	496
783.508	498.2
783.919	497.8
784.33	511.2
784.741	511.4
785.152	489.6
785.563	488
785.974	496.4
786.386	503.8
786.776	495.8
787.188	497.8
787.599	491.6
788.011	501.8
788.423	500.2
788.835	495.4
789.247	486.4
789.659	483
790.071	484.4
790.483	515.6
790.874	489.6
791.286	489.4
791.699	493.6
792.111	486.8
792.524	489
792.937	487.6
793.349	481.6
793.741	490.2
794.154	487.8
794.567	501.8
794.98	492
795.393	481
795.785	497.2
796.198	486.2
796.612	494
797.026	495.4
797.439	485.6
797.831	488.8
798.245	491.4
798.659	491.2
799.073	485.8
799.487	491
799.88	491
800.294	485.8
800.708	499.4
801.123	505
801.516	506.8
801.93	483.6
802.345	487.8
802.76	494.2
803.153	501.4
803.568	509.4
803.983	507.6
804.377	506.6
804.792	488.8
805.207	486
805.601	488.6
806.016	519.4
806.432	490
806.826	513.6
807.242	505.2
807.658	500
808.052	483.6
808.468	481
808.884	489.2
809.279	486.4
809.695	494
810.111	506.8
810.506	493.8
810.922	503.2
811.339	490.2
811.734	500
812.151	483.6
812.546	498.2
812.963	484.6
813.38	490
813.776	487.2
814.193	510.2
814.589	490.8
815.006	487.8
815.402	484.4
815.82	487.6
816.237	495
816.633	495.4
817.051	490.4
817.448	494
817.866	486
818.262	511
818.68	482.4
819.077	485
819.495	494
819.892	520.8
820.311	487.4
820.708	493.2
821.127	486
821.524	503
821.943	500.4
822.34	508.4
822.759	498.8
823.157	496
823.576	504.8
823.974	499
824.393	579
824.791	487.6
825.189	485
825.609	487.2
826.007	489.2
826.427	493.6
826.826	496.8
827.246	494.2
827.644	483.6
828.043	491.8
828.463	488.2
828.862	503.2
829.261	494.2
829.682	484.4
830.081	501.6
830.502	484.6
830.901	493.4
831.301	484
831.722	485.8
832.121	492.6
832.521	485
832.943	494.6
833.342	488
833.742	479.2
834.164	485.8
834.564	484.8
834.965	492.6
835.386	487.8
835.787	494.6
836.188	489.4
836.588	490.6
837.01	492.4
837.411	485.4
837.812	496.4
838.213	493.4
838.636	493
839.037	547.8
839.438	491.6
839.84	495.6
840.263	498
840.664	490
841.066	487.4
841.468	491.6
841.891	493.6
842.293	500.8
842.695	502.2
843.098	510.4
843.5	492
843.902	498.8
844.326	490
844.729	488.4
845.131	500.6
845.534	486
845.937	498.6
846.34	506
846.764	484.8
847.167	500.4
847.571	483
847.974	484
848.377	488
848.781	529.4
849.184	496.6
849.588	492.4
849.992	485
850.396	491.8
850.821	502.8
851.225	491.4
851.63	481.6
852.034	507
852.438	489.6
852.843	553
853.247	492.2
853.652	487.4
854.057	503
854.462	491.8
854.867	495.2
855.272	508.8
855.677	489.4
856.082	488.4
856.487	482.4
856.893	488.2
857.298	491.2
857.704	481.4
858.11	486.2
858.516	499.6
858.922	491.8
859.328	484
859.734	494
860.14	495.6
860.525	485.2
860.931	487.6
861.338	488.4
861.745	500.8
862.151	498.4
862.558	495.8
862.965	487.6
863.372	488
863.779	483.4
864.186	500.2
864.572	495
864.98	497
865.387	516.6
865.795	486.8
866.203	505
866.61	480.2
867.018	493.2
867.405	493.8
867.813	488.8
868.221	483.4
868.63	487.2
869.038	496.4
869.425	517.8
869.834	499.2
870.243	485.6
870.652	485.8
871.039	489.8
871.448	491.2
871.857	493.6
872.266	491.6
872.654	486
873.064	492.2
873.473	500.6
873.883	486.8
874.271	480
874.681	503.6
875.091	482
875.48	499.8
875.89	505.2
876.3	487.2
876.689	481.4
877.1	486.8
877.51	488.2
877.9	503.8
878.31	486.6
878.721	526.6
879.111	498
879.522	490.4
879.933	480
880.323	482
880.734	487.6
881.125	495.8
881.536	485
881.948	481
882.338	486.2
882.75	490.2
883.141	493.8
883.553	492
883.944	509.8
884.356	491.6
884.769	483.6
885.16	481
885.573	481
885.964	478
886.377	488.6
886.768	476.4
887.181	489.6
887.573	476
887.987	491
888.378	492.4
888.792	479.4
889.184	523.2
889.598	481.2
889.99	490.2
890.383	481.2
890.797	482.4
891.19	489.8
891.604	483.6
891.997	482.6
892.411	478.8
892.805	483.2
893.198	489
893.613	479.8
894.006	489.6
894.421	485.4
894.815	489.2
895.209	482.2
895.624	520.6
896.018	502
896.412	487.4
896.828	495.4
897.222	492.2
897.617	486.2
898.033	501.8
898.427	488.4
898.822	488
899.239	486
899.634	479.4
900.029	501
900.424	488.4
900.841	481.2
901.236	491.6
901.632	489.2
902.027	535.8
902.445	490
902.841	479.4
903.237	489.8
903.633	490
904.05	488.2
904.447	491
904.843	487.6
905.24	488.2
905.636	479.6
906.033	480.6
906.451	494.2
906.848	483.4
907.246	476.2
907.643	493.2
908.04	496.8
908.438	494.8
908.835	491.2
909.254	494.2
909.652	491.2
910.05	485.8
910.448	485.6
910.846	491.4
911.244	485
911.643	493
912.041	491.4
912.44	499.4
912.839	486.8
913.237	482.6
913.636	479.2
914.035	492
914.434	486.6
914.834	502
915.233	490.8
915.633	486
916.032	485.2
916.432	482.8
916.832	499.2
917.232	490.6
917.632	480.4
918.032	487.2
918.432	485.2
918.833	495
919.233	485.4
919.634	479.6
920.035	493.8
920.436	487.8
920.837	497.6
921.238	485.2
921.639	494.6
922.019	485.4
922.42	491
922.822	492
923.224	491.6
923.625	483.4
924.027	493.4
924.429	499.8
924.81	494.4
925.212	492.8
925.615	490
926.017	492.8
926.42	496.6
926.801	488.6
927.204	491
927.607	496.6
928.01	499
928.413	488
928.795	481.6
929.199	484.4
929.602	494.8
930.006	480.6
930.388	482.2
930.792	491
931.196	491.2
931.579	517
931.983	480.2
932.388	518.4
932.771	484
933.176	478.6
933.58	489.6
933.964	489.2
934.369	482.8
934.774	489.4
935.158	490.6
935.563	490.8
935.947	487.8
936.353	488.4
936.759	485.4
937.143	492.8
937.549	495.6
937.934	498
938.34	504.8
938.746	479.2
939.131	484.2
939.538	478
939.923	495.2
940.33	480
940.716	488
941.123	489.4
941.508	494.4
941.916	502.4
942.302	484
942.709	482.6
943.096	476.2
943.503	482.4
943.89	476.2
944.298	488
944.685	513.6
945.072	489
945.48	502
945.867	488.2
946.276	482.8
946.663	490.4
947.051	494.6
947.46	493.6
947.848	489.8
948.257	482
948.645	485.4
949.033	481
949.443	482
949.831	521
950.22	482.2
950.63	489
951.018	506.8
951.407	491.4
951.796	476.8
952.207	486.4
952.596	482.6
952.985	473.4
953.375	516.4
953.786	483.6
954.176	480.6
954.566	494.2
954.956	477.6
955.367	493.2
955.758	501.2
956.148	479.2
956.539	491.6
956.929	474.8
957.341	480.8
957.732	489
958.123	491.6
958.515	483.8
958.906	497.2
959.297	481.2
959.689	481
960.102	487.4
960.494	494
960.886	482
961.278	484
961.67	507.2
962.062	513
962.455	485.8
962.847	482.6
963.24	484
963.633	493.8
964.026	474.2
964.419	485.4
964.812	491.6
965.206	477
965.599	487
965.993	489.2
966.386	483.2
966.78	492.6
967.174	491.6
967.569	483
967.963	487
968.357	483.4
968.752	484.6
969.146	486.6
969.541	484.6
969.936	480
970.331	484
970.705	478.4
971.1	486
971.496	491.4
971.892	481.4
972.287	485.2
972.683	484.4
973.079	475.2
973.454	496.6
973.85	487.6
974.247	488.6
974.643	510.6
975.04	491.6
975.415	490
975.812	481.6
976.209	487.8
976.607	482.8
976.982	497
977.38	500.4
977.778	484
978.175	483
978.552	479.2
978.95	487
979.348	480
979.725	511.2
980.123	474.2
980.522	480.2
980.899	476.6
981.298	478.8
981.697	474.8
982.075	474.2
982.474	476.4
982.852	479.4
983.251	486.2
983.651	470.2
984.029	477.2
984.429	489
984.808	474
985.208	475.8
985.609	474.6
985.987	469.8
986.388	486.2
986.768	491.8
987.168	475.6
987.548	482.4
987.949	490.6
988.329	488.4
988.731	471.2
989.111	489.2
989.491	477.6
989.893	491.2
990.273	496.8
990.676	480
991.057	482.4
991.459	485.6
991.84	480.6
992.221	477.8
992.624	502.6
993.006	492.4
993.388	486.8
993.791	487.2
994.173	490
994.576	502.4
994.959	478.2
995.341	481
995.724	478.8
996.128	472
996.511	484.2
996.894	472.8
997.298	474.8
997.681	482.4
998.065	478.4
998.448	472.4
998.854	489.8
999.237	469.2
999.621	483
1000.01	505.4
1000.39	484
1000.8	476.8
1001.18	488.8
1001.56	481.4
1001.95	490.8
1002.33	491.8
1002.72	485.6
1003.13	480
1003.51	479.8
1003.9	476
1004.28	492.4
1004.67	480
1005.06	487.2
1005.44	509.4
1005.83	471.8
1006.21	480.4
1006.6	485
1006.99	491
1007.37	491
1007.76	482.6
1060.12	477.8
1060.51	482.8
1060.89	487
1061.28	492.6
1061.67	483.6
1062.06	484.2
1062.45	486.8
1062.83	476.8
1063.22	491.4
1063.61	519
1064	492.8
1064.39	482.2
1064.78	475.4
1065.14	491.4
1065.53	491
1065.92	479.4
1066.31	478.2
1066.7	489
1067.09	494.4
1067.46	493.2
1067.85	487.4
1068.24	477.2
1068.63	476.6
1069.02	478.6
1069.39	490.6
1069.78	478
1070.17	482.2
1070.57	475.6
1070.93	480.4
1071.33	481.2
1071.72	485.2
1072.11	480.8
1072.48	488.4
1072.87	486.2
1073.26	486.4
1073.64	488.2
1074.03	475
1074.4	479.8
1074.79	477.2
1075.19	478.2
1075.56	490
1075.95	485.2
1076.34	484.6
1076.72	489
1077.11	488.4
1077.48	495.8
1077.88	493.8
1078.25	482.2
1078.64	489.8
1079.02	483.2
1079.41	485.4
1079.78	487.6
1080.18	480.6
1080.55	536.2
1080.95	484.4
1081.32	479.2
1081.72	491.2
1082.09	478.8
1082.49	476
1082.86	480.4
1083.24	472.8
1083.63	476.8
1084.01	481.8
1084.38	489.8
1084.78	479.8
1085.16	487.6
1085.55	494.4
1085.93	491.2
1086.31	483.4
1086.7	509
1087.08	487.6
1087.46	488.6
1087.83	476.4
1088.23	486.6
1088.61	483.2
1088.99	483.8
1089.36	481
1089.76	476.6
1090.14	485
1090.52	479.2
1090.9	480.6
1091.27	495.2
1091.67	495.2
1092.05	489.8
1092.43	478
1092.81	482.6
1093.19	488.2
1093.57	475.2
1093.95	481.8
1094.35	490.6
1094.73	490.6
1095.11	480.6
1095.49	483.4
1095.87	479
1096.25	493.6
1096.63	490.2
1097.01	470.4
1097.39	487.4
1097.77	478
1098.15	482.4
1098.53	472.6
1098.91	486.6
1099.29	480.6
1099.68	485.4
1100.06	483
1100.44	477.4
1100.82	482.6
1101.18	484.4
1101.56	479.6
1101.95	482
1102.33	478.6
1102.71	486.2
1103.1	479
1103.48	478
1103.86	482
1104.22	473.6
1104.61	478.4
1104.99	477.6
1105.38	470
1105.76	484.2
1106.12	483.6
1106.51	515.8
1106.89	478.4
1107.26	483
1107.64	491.2
1108.03	480.8
1108.41	476
1108.78	481.6
1109.16	487.4
1109.55	493.6
1109.91	480.6
1110.3	468.2
1110.69	494.4
1111.05	479.8
1111.44	484.6
1111.8	480.6
1112.19	485.4
1112.58	481.8
1112.94	476.2
1113.33	482.2
1113.7	480.6
1114.09	485.2
1114.45	472.4
1114.84	475.6
1115.21	485.8
1115.6	474.2
1115.96	482.4
1116.35	483.2
1116.72	477.2
1117.11	484.2
1117.48	483
1117.85	477.2
1118.24	493.4
1118.6	480.8
1118.99	472.8
1119.36	489.6
1119.73	486.4
1120.12	479
1120.49	474.2
1120.86	485.4
1121.25	475.6
1121.62	472.2
1121.99	469.6
1122.38	475
1122.76	476.4
1123.13	470.8
1123.5	474.4
1123.89	477.4
1124.26	462.4
1124.63	474
1125	476
1125.4	469.6
1125.77	475.8
1126.14	465.8
1126.51	479.8
1126.88	480.8
1127.26	473
1127.63	468.8
1128.02	470.4
1128.4	471.6
1128.77	486.6
1129.14	473.6
1129.52	476
1129.89	478.8
1130.26	473
1130.64	477.2
1131.01	470.6
