#lambda/nm	C1
208.295	468
208.67	433.6
209.045	392.8
209.419	396.8
209.794	539
210.169	515.8
210.544	618.8
210.919	529.4
211.295	517
211.67	530
212.045	519
212.421	524.6
212.796	547
213.172	517.6
213.547	519.8
213.923	522.6
214.299	523.4
214.675	536
215.051	532
215.427	536.6
215.803	544.6
216.179	536
216.555	522.8
216.932	531.2
217.308	530
217.684	530.2
218.061	537.4
218.438	532.8
218.814	525.2
219.191	540
219.568	523.8
219.945	519.2
220.322	537.4
220.699	525.8
221.076	536.8
221.453	527.4
221.83	521.4
222.208	525.2
222.585	527.2
222.962	526.6
223.34	530.8
223.717	520
224.095	516.6
224.473	526.6
224.851	527.4
225.229	520.8
225.607	538.6
225.985	523.4
226.363	526.2
226.741	529.8
227.119	527.8
227.497	536.8
227.876	515.6
228.254	531.4
228.633	531.6
229.011	538
229.39	536
229.769	534.6
230.148	542.2
230.527	544.8
230.905	525.2
231.284	522.2
231.664	530
232.043	541
232.422	528.6
232.801	520
233.181	531.8
233.56	518.8
233.94	524.4
234.319	514
234.699	518
235.079	558.4
235.458	559.4
235.838	542.8
236.218	521
236.598	515.4
236.978	520.2
237.358	520.2
237.738	521.8
238.119	534.2
238.499	520.8
238.88	527.4
239.26	541.2
239.641	521.4
240.021	528.2
240.402	522.8
240.783	520.4
241.163	530.4
241.544	530.6
241.925	534.4
242.306	534.8
242.687	525.4
243.069	524.6
243.45	541.2
243.831	528.4
244.212	524.8
244.594	556.8
244.975	533.2
245.357	526
245.739	526.4
246.12	522
246.502	533.2
246.884	525.4
247.266	527.6
247.648	533
248.03	547.6
248.412	529.6
248.794	529.6
249.176	521.6
249.559	536.2
249.941	522.8
250.323	522.6
250.706	522.2
251.089	531.6
251.471	532.6
251.854	521.8
252.237	533.4
252.62	546.6
253.002	535.6
253.385	527.4
253.769	539.6
254.152	525.4
254.535	526.2
254.918	521.8
255.301	526.6
255.685	534.4
256.068	519.4
256.452	540.6
256.835	535.6
257.219	530.6
257.603	532.6
257.986	525.8
258.37	529.6
258.754	519.8
259.138	523.8
259.522	537.6
259.906	526.6
260.29	531.2
260.675	533.6
261.059	528.8
261.443	521.4
261.828	533.6
262.212	530.8
262.597	520
262.981	528.8
263.366	531.8
263.751	534.6
264.136	524.6
264.521	522.8
264.906	526
265.291	529.4
265.676	529
266.061	534.6
266.446	541.4
266.831	532.2
267.217	548.8
267.602	530.6
267.987	535.6
268.373	527
268.759	536.8
269.144	535.8
269.53	527.6
269.916	527
270.302	531.2
270.688	536.2
271.074	529.4
271.46	536.8
271.846	551.4
272.232	538.6
272.618	523.2
273.004	529.2
273.391	540
273.777	535.4
274.164	532.2
274.55	545.2
274.937	531.2
275.324	524
275.71	530.4
276.097	535.4
276.484	521.6
276.871	531.2
277.258	530.2
277.645	512.6
278.032	531.4
278.419	527.4
278.807	532.6
279.194	530.4
279.581	527.8
279.969	531.2
280.356	529.8
280.744	535.4
281.131	551.8
281.519	539.2
281.907	525.6
282.295	519.2
282.682	531
283.07	532
283.458	537.6
283.846	547.6
284.235	527.2
284.623	533.8
285.011	519.8
285.399	527.2
285.788	529.8
286.176	521
286.565	535.4
286.953	531.6
287.342	524.2
287.731	513.8
288.119	528.8
288.508	530.6
288.897	531.6
289.286	519.4
289.675	527.2
290.064	535.4
290.453	525.8
290.821	534.4
291.21	543
291.599	525.6
291.989	537
292.378	537.4
292.768	541.6
293.157	536
293.547	535.6
293.936	528.8
294.326	522.6
294.716	524.6
295.106	527.8
295.496	533.2
295.886	534.2
296.276	529.2
296.666	528.4
297.056	526.8
297.446	509.2
297.836	533
298.227	525.8
298.617	527
299.008	533.8
299.398	523.8
299.789	519.2
300.179	527.2
300.57	539.6
300.961	527.4
301.352	523.4
301.742	525
302.133	519.2
302.524	526.8
302.915	523.2
303.307	519.2
303.698	538
304.089	536
304.48	524
304.872	530
305.263	523.8
305.655	519.6
306.046	530.4
306.438	532.2
306.829	519
307.221	536.8
307.613	540.2
308.005	531.8
308.397	530.6
308.789	541.6
309.181	534
309.573	540.6
309.965	538
310.357	520.8
310.749	539
311.142	522.4
311.534	524.4
311.926	537.2
312.319	529
312.711	518.4
313.104	540.8
313.497	524.4
313.889	554.4
314.282	540.8
314.675	549
315.068	531.2
315.461	536.6
315.854	552.2
316.247	531.4
316.64	525
317.033	530.8
317.405	535.4
317.798	530.4
318.192	531.2
318.585	515.2
318.979	528.8
319.372	519.2
319.766	525.6
320.16	533
320.553	535.2
320.947	538.6
321.341	526.6
321.735	527.2
322.129	524
322.523	547.2
322.917	523.6
323.311	533.4
323.705	528.4
324.099	534.2
324.494	535.8
324.888	540.2
325.282	530.4
325.677	537
326.071	527.8
326.466	536.6
326.861	527.6
327.255	531.8
327.65	538.4
328.045	537.4
328.44	525.4
328.835	524.2
329.23	521.8
329.625	550.6
330.02	519
330.415	543.6
330.81	528.6
331.206	537.6
331.601	530
331.996	535.8
332.37	551.6
332.766	520.4
333.161	551.4
333.557	524.6
333.953	528.6
334.348	788
334.744	527.2
335.14	522.4
335.536	523
335.932	539.8
336.328	534.2
336.724	533.6
337.12	526.8
337.516	533.6
337.913	531.2
338.309	538.8
338.705	537
339.102	536.2
339.498	521.8
339.895	542
340.291	523.2
340.688	538.2
341.085	518.2
341.481	530
341.878	528
342.275	530.6
342.672	522.2
343.069	520.8
343.466	512.8
343.842	531.2
344.239	525.2
344.636	524.2
345.033	519.8
345.431	520.8
345.828	526.4
346.225	515.8
346.623	552.4
347.02	522.8
347.418	530
347.816	537.4
348.213	516.6
348.611	522
349.009	522.4
349.407	538.2
349.805	518.6
350.203	525.6
350.601	533.4
350.999	524.6
351.397	575.6
351.795	522.4
352.193	532.2
352.57	535.8
352.969	529.6
353.367	522.2
353.766	517.6
354.164	522.8
354.563	526.4
354.961	525.8
355.36	526.6
355.759	518.8
356.158	515.2
356.557	519.4
356.956	521.4
357.355	515.2
357.754	533.8
358.153	526.2
358.552	543.2
358.951	519.8
359.35	541.2
359.75	515
360.149	518.2
360.527	514.2
360.926	518.2
361.326	525.2
361.726	527.2
362.125	520.6
362.525	521
362.925	522
363.325	526.2
363.724	518.2
364.124	523.4
364.524	515.2
364.924	523.6
365.324	538.4
365.725	511.6
366.125	528.8
366.525	520.2
366.904	524
367.304	503.4
367.705	528.6
368.105	533.2
368.506	525.6
368.906	521.4
369.307	524.4
369.708	520.6
370.108	515
370.509	520.6
370.91	515.2
371.311	525.6
371.712	528.6
372.113	519.8
372.514	511.4
372.894	511
373.295	505.6
373.696	522.6
374.097	521.8
374.499	546.2
374.9	515.8
375.301	505
375.703	525.4
376.105	515.6
376.506	522
376.908	526.6
377.309	517.4
377.711	522.4
378.113	515
378.493	518.6
378.895	518.2
379.297	531.6
379.699	511.4
380.102	523
380.504	520.2
380.906	517.6
381.308	542
381.71	516.4
382.113	527
382.515	520.6
382.918	527.4
383.299	516.8
383.701	526.4
384.104	522
384.507	506.8
384.909	527.2
385.312	503.4
385.715	512.6
386.118	522.4
386.521	508.6
386.924	529.2
387.327	512.2
387.709	506
388.112	504.6
388.515	523.8
388.918	528.4
389.322	530.6
389.725	518.6
390.129	535.4
390.532	523.4
390.936	521.6
391.339	518.8
391.743	525.6
392.125	509
392.529	531.2
392.933	532.2
393.337	520
393.74	512
394.144	525.8
394.548	517
394.953	526
395.357	520.8
395.761	518.8
396.144	515.6
396.548	516.2
396.952	516.8
397.357	512.2
397.761	510
398.166	514.8
398.57	515
398.975	506.8
399.379	510.6
399.763	557
400.168	509.4
400.572	513.2
400.977	508.8
401.382	530.2
401.787	525.8
402.192	528.2
402.597	523.8
403.002	505.4
403.386	528
403.791	537.2
404.197	519.2
404.602	516.4
405.007	520.2
405.413	510.2
405.818	515.8
406.224	506
406.608	509
407.014	517.4
407.42	535.8
407.825	511
408.231	524
408.637	527
409.043	530.2
409.449	510.6
409.834	512.2
410.24	516.8
410.646	527
411.052	532.8
411.458	520.2
411.865	525.8
412.271	529.6
412.677	527.8
413.062	529.6
413.469	509.8
413.875	532
414.282	526.6
414.689	523.2
415.095	525
415.502	516.4
415.888	523.4
416.294	512.2
416.701	554.6
417.108	513.2
417.515	532.4
417.923	519.2
418.33	535.4
418.715	531.6
419.123	521.4
419.53	514.2
419.937	516.8
420.345	532
420.752	514
421.16	528
421.546	525.4
421.953	532.8
422.361	509.2
422.769	517.8
423.177	513
423.585	540.6
423.992	534.6
424.379	531.4
424.787	528.8
425.195	534
425.603	516.6
426.011	531
426.419	529
426.806	523.2
427.214	525
427.623	529
428.031	533.6
428.44	523.2
428.848	535.8
429.235	530.2
429.644	527
430.053	525.4
430.461	539.4
430.87	540.6
431.279	538.4
431.666	521
432.075	522.8
432.484	530.8
432.893	511.4
433.302	527.8
433.711	552.8
434.099	526.4
434.508	518
434.918	513
435.327	524
435.737	521.4
436.125	520.8
436.534	527.4
436.944	527.8
437.353	517.4
437.763	536.8
438.173	512.4
438.561	533.6
438.971	502.4
439.381	516.6
439.791	524.8
440.201	510.8
440.589	523.2
440.999	519.8
441.409	516.2
441.819	510.2
442.23	531.2
442.619	526.4
443.029	520.4
443.439	520.8
443.85	528.4
444.26	533.4
444.649	527.2
445.06	523.8
445.471	519.4
445.881	522
446.292	532.6
446.682	538
447.092	505
447.503	553.4
447.914	517.4
448.325	513.2
448.715	516.8
449.126	509
449.537	512.6
449.948	518.2
450.338	524
450.75	519.2
451.161	524.4
451.572	524.4
451.984	515
452.374	506.4
452.786	524.4
453.197	522.8
453.609	526
453.999	506.8
454.411	515
454.823	527.8
455.235	520.2
455.647	528.8
456.037	523.8
456.449	509.4
456.862	522
457.274	522.6
457.665	509.8
458.077	519.2
458.489	542.6
458.902	515.6
459.293	513.4
459.705	518
460.118	511
460.53	524.2
460.921	513.8
461.334	523.6
461.747	518.6
462.16	529.2
462.551	526.8
462.964	519.8
463.377	511.8
463.79	522.8
464.182	525
464.595	505
465.008	523.4
465.421	525.2
465.813	516.2
466.226	515.2
466.64	520
467.053	554
467.445	521.2
467.859	530.6
468.272	512.4
468.686	522.8
469.078	518.8
469.492	507.8
469.906	511.8
470.298	521.4
470.712	512
471.126	537.8
471.54	497.4
471.933	511.6
472.347	515.6
472.761	504.8
473.175	502
473.568	502.6
473.982	502
474.397	518.6
474.79	513.8
475.204	520.6
475.619	512.6
476.033	516.2
476.426	515.2
476.841	508
477.256	527.8
477.649	507.6
478.064	498
478.479	503
478.872	504.4
479.287	492.4
479.702	507.2
480.118	507
480.511	513.6
480.927	513.2
481.342	506.2
481.736	508
482.151	509.2
482.566	513.2
482.96	504.8
483.376	518.6
483.792	506.2
484.186	515.4
484.602	511
485.017	510.4
485.412	510.2
485.827	515
486.243	517.6
486.638	521.2
487.054	521.6
487.47	520.8
487.865	513
488.281	508.4
488.697	501.6
489.092	506.4
489.508	497.6
489.925	513.6
490.32	505.4
490.736	516.8
491.153	516.4
491.548	506.4
491.964	511
492.381	500.6
492.776	520.2
493.193	508.6
493.61	512.8
494.006	511.6
494.422	511
494.84	512.8
495.235	517.4
495.652	507.8
496.069	505.8
496.465	497
496.883	502.8
497.3	519.4
497.696	500.4
498.113	513.2
498.509	502.4
498.927	498.2
499.344	502.2
499.741	507
500.158	514.8
500.576	515.8
500.973	506
501.39	495.6
501.787	498.2
502.205	512.4
502.623	502.6
503.02	503.2
503.438	498.2
503.856	505.2
504.253	510
504.671	514
505.068	508
505.486	507.2
505.905	528.4
506.302	511.8
506.72	514.8
507.118	493.8
507.536	503
507.955	506.2
508.352	508.6
508.771	511
509.169	516.6
509.587	505.8
510.006	505
510.404	498.4
510.823	502.6
511.221	503.8
511.64	503
512.038	522.6
512.457	514.2
512.877	504
513.275	501
513.694	506.4
514.092	501
514.512	514.2
514.91	513
515.33	514
515.749	506
516.148	514.8
516.568	509
516.966	509.8
517.386	500
517.785	509.8
518.205	510.4
518.603	505.4
519.024	505.4
519.444	512.2
519.843	514.2
520.263	516.2
520.662	517.2
521.082	513.4
521.481	516.6
521.902	510
522.301	511
522.722	507.6
523.121	506.8
523.542	503.6
523.963	515.2
524.362	508.2
524.783	507.6
525.183	504.8
525.604	509.8
526.003	512.4
526.425	502
526.824	513.8
527.246	521.2
527.646	513.8
528.067	505.2
528.467	505.2
528.888	510.2
529.289	513.8
529.71	505.8
530.11	506.6
530.532	506.2
530.932	508.4
531.354	498
531.755	533.4
532.176	518
532.577	512.8
532.999	509
533.4	511.6
533.822	521.6
534.223	504.4
534.645	508.2
535.046	507.6
535.468	510.6
535.869	518
536.292	509.6
536.693	533.6
537.115	519
537.516	510.2
537.939	501.4
538.34	520.6
538.742	514
539.165	516.4
539.566	508
539.989	496.2
540.391	505.2
540.814	509.2
541.216	509
541.639	506.8
542.041	514.4
542.464	507.6
542.866	511.6
543.268	505
543.691	508.4
544.093	509
544.517	519
544.919	503.2
545.343	528.2
545.745	496.4
546.147	510.8
546.571	509.4
546.974	507.8
547.398	508.4
547.8	518.2
548.224	502.2
548.627	503.6
549.03	517
549.454	502.6
549.857	498.4
550.281	497.4
550.684	499.6
551.087	519.6
551.512	505.8
551.915	510.2
552.34	506.8
552.743	504.8
553.146	507.4
553.571	505.8
553.975	524.8
554.399	501.2
554.803	540.8
555.207	504.6
555.632	498.8
556.036	508.6
556.461	508
556.865	505.4
557.268	503.8
557.694	502.2
558.098	509.6
558.502	508
558.927	498.2
559.332	509
559.736	510
560.162	508.4
560.566	510.4
560.992	508.8
561.396	512.6
561.801	500.6
562.227	511.8
562.631	512.4
563.036	506
563.462	513
563.867	504.6
564.272	508.6
564.698	509.2
565.103	496.6
565.508	522.4
565.935	504.8
566.34	513
566.745	515.2
567.172	503.4
567.577	523.4
567.982	515.6
568.409	512.2
568.815	496.2
569.22	500.8
569.626	513.4
570.053	498
570.459	515.6
570.865	517.4
571.292	504.8
571.698	507.2
572.104	495.6
572.531	503.6
572.937	517.6
573.343	496.6
573.75	501.2
574.177	515
574.583	512
574.99	501.6
575.396	507
575.824	505
576.231	507.2
576.637	499.2
577.065	531.6
577.472	494.6
577.879	498
578.286	515.4
578.714	502
579.121	498.2
579.528	509.2
579.935	518.2
580.364	507
580.771	489.8
581.178	497.4
581.585	505.4
582.014	516.2
582.421	503.8
582.829	500.2
583.236	512.6
583.644	502.2
584.073	500.4
584.481	515.6
584.889	499.4
585.296	509.4
585.726	511.6
586.134	497
586.542	496
586.95	520.4
587.358	500.6
587.787	503.6
588.196	496.2
588.604	500.4
589.012	503.8
589.421	492.6
589.851	498
590.259	502.8
590.668	505.8
591.076	529.2
591.485	496.6
591.894	504.2
592.324	511.4
592.733	515
593.142	499.2
593.551	508.8
593.96	529.8
594.369	487.8
594.8	495.6
595.209	505.6
595.618	488.4
596.028	497.8
596.437	506.4
596.847	504.6
597.256	498.8
597.687	510.6
598.097	503
598.507	496.8
598.917	504
599.327	508
599.736	503.4
600.146	500
600.556	504.8
600.988	507.6
601.398	497
601.808	509
602.219	493.8
602.629	503.4
603.039	503.4
603.45	515.2
603.86	508.2
604.271	518.6
604.703	507.8
605.114	502.6
605.525	497
605.935	506.2
606.346	520
606.757	509.8
607.168	503
607.579	494.8
607.99	503.4
608.402	508
608.813	504.4
609.224	498.2
609.636	493.8
610.047	493.2
610.48	501.8
610.892	505.6
611.303	509
611.715	500.8
612.127	500.4
612.539	500.8
612.95	497.8
613.362	499.8
613.774	494.4
614.186	500.6
614.599	506.2
615.011	509.4
615.423	510.4
615.835	491
616.248	494.6
616.66	508
617.073	494.8
617.485	501
617.898	506.4
618.311	509
618.723	499
619.136	524.6
619.549	516.8
619.962	516.2
620.375	507.6
620.788	503.2
621.201	502.2
621.614	505.2
622.028	506.2
622.441	503.8
622.854	511.4
623.268	500.8
623.681	508.2
624.095	500.6
624.509	507
624.922	505.6
625.336	487.8
625.728	506.8
626.142	513
626.556	520.8
626.97	508.8
627.384	500.2
627.799	499.2
628.213	509.2
628.627	502.2
629.041	494.4
629.456	496.6
629.87	494.8
630.285	508.8
630.699	513.2
631.093	501.6
631.507	502.8
631.922	502.8
632.337	511.4
632.752	496.4
633.167	506.4
633.582	497.4
633.997	502
634.412	500
634.806	508.6
635.221	488.8
635.637	511.4
636.052	485.2
636.468	499.4
636.883	518.8
637.299	499.4
637.715	483
638.109	504
638.525	490.6
638.941	503.2
639.357	501.4
639.773	510.8
640.189	496.6
640.584	496.8
641	499.4
641.416	500.8
641.832	500
642.249	498.4
642.665	505
643.06	508.4
643.477	509.2
643.894	491.8
644.31	499.8
644.727	496.8
645.123	497.6
645.54	493.8
645.957	504.8
646.374	516
646.77	496.2
647.187	530
647.604	499.2
648.021	492.4
648.439	499.6
648.835	509.4
649.252	502.4
649.67	497.4
650.088	495.8
650.484	504.2
650.902	505.6
651.32	521.6
651.738	494.6
652.134	494.2
652.552	514.6
652.971	504
653.389	497
653.786	519.4
654.204	500.2
654.622	501
655.019	493.4
655.438	501.2
655.857	494
656.275	505.4
656.673	497.4
657.091	505.6
657.51	499.4
657.908	504.8
658.327	516
658.746	489.4
659.144	498
659.563	509.2
659.982	497
660.38	495.6
660.8	505.2
661.219	511.4
661.617	497.6
662.037	500.2
662.457	513.2
662.855	497.8
663.275	521.2
663.695	494.6
664.094	494.6
664.514	503.2
664.934	490.2
665.333	501.6
665.753	493
666.152	491.8
666.572	485.2
666.993	504.8
667.392	498.2
667.812	491
668.212	495.4
668.632	507.2
669.053	494.6
669.453	501
669.874	510.4
670.273	498.8
670.694	496.4
671.116	506.2
671.515	503.4
671.937	493.2
672.337	495.2
672.758	490.6
673.158	505
673.58	490
673.98	493.8
674.402	504.6
674.824	502.8
675.224	497
675.646	489.4
676.047	497.8
676.469	493.8
676.869	506
677.292	499
677.693	493.6
678.115	489.4
678.516	508.4
678.939	499.2
679.34	494.2
679.762	508.6
680.164	503.8
680.586	496.4
680.988	499.8
681.411	513.8
681.812	494.6
682.236	499.2
682.637	490.4
683.061	491.6
683.462	492.6
683.864	491.4
684.288	499.2
684.69	489.6
685.114	505.6
685.516	503.8
685.94	490.4
686.342	506.4
686.766	490.8
687.168	489.6
687.571	504.2
687.995	497.8
688.398	489.4
688.822	491
689.225	517.6
689.628	519.6
690.052	493.6
690.456	499.8
690.88	488.4
691.284	483.6
691.687	500.8
692.112	487
692.515	493.2
692.919	496.6
693.344	491.6
693.747	491.2
694.173	499.2
694.577	507.4
694.98	490.2
695.406	491.2
695.81	498.8
696.214	500.6
696.64	495.4
697.044	495.4
697.448	497
697.874	497.4
698.279	488.4
698.684	491.4
699.11	493
699.514	492.2
699.919	494.8
700.324	489.6
700.75	493.6
701.156	499.8
701.561	502
701.987	502.2
702.393	504.4
702.798	499.8
703.203	489.8
703.63	493.8
704.036	492
704.442	496.4
704.847	488.4
705.274	487.6
705.68	498.8
706.086	507.2
706.492	483.8
706.92	493.2
707.326	499.8
707.732	491.8
708.139	488.6
708.545	487.6
708.973	490.8
709.38	496.2
709.786	485.8
710.193	507.6
710.6	493
711.028	485
711.435	494.4
711.842	499.4
712.249	495
712.656	500.4
713.064	507.4
713.492	480.8
713.9	501.6
714.307	498.2
714.715	498.4
715.123	499.4
715.53	500.8
715.938	507
716.367	499.8
716.775	498.2
717.184	491.4
717.592	491.8
718	504.6
718.408	527.2
718.816	520.8
719.225	500.8
719.633	494.2
720.042	491.8
720.472	494.4
720.881	509.8
721.29	497.8
721.699	493.2
722.108	504.6
722.517	501
722.926	494.2
723.335	504.4
723.744	498.4
724.154	500.4
724.563	500
724.973	497.8
725.382	492.4
725.792	494.4
726.202	486.2
726.612	505.6
727.022	493.8
727.432	484.2
779.813	499.4
780.223	530.4
780.634	490.8
781.044	487.6
781.454	496.8
781.865	506.2
782.276	485.2
782.686	495.6
783.097	491.6
783.508	494.2
783.919	497.2
784.33	500.4
784.741	509.6
785.152	488.6
785.563	479.8
785.974	487.6
786.386	501.4
786.776	487
787.188	493
787.599	492.8
788.011	496.6
788.423	494.4
788.835	490
789.247	485.6
789.659	482.8
790.071	491.4
790.483	526.8
790.874	489.8
791.286	503.8
791.699	495.2
792.111	497
792.524	501.6
792.937	491
793.349	490.6
793.741	491.2
794.154	484
794.567	508
794.98	493.2
795.393	480.8
795.785	506.4
796.198	497.8
796.612	501.6
797.026	501.4
797.439	491.2
797.831	496
798.245	481.4
798.659	490.8
799.073	492
799.487	489.4
799.88	488.2
800.294	495.2
800.708	495.2
801.123	494.8
801.516	507.2
801.93	488.2
802.345	487.8
802.76	492.8
803.153	506.4
803.568	502
803.983	496.2
804.377	497.2
804.792	485.6
805.207	484
805.601	497.2
806.016	521.4
806.432	493.2
806.826	518.2
807.242	500.8
807.658	497
808.052	491.2
808.468	490.2
808.884	487.2
809.279	496
809.695	510
810.111	508.2
810.506	499.4
810.922	510
811.339	487
811.734	493.4
812.151	488.2
812.546	485
812.963	490
813.38	491
813.776	488.2
814.193	506.6
814.589	486.8
815.006	489.8
815.402	485.2
815.82	487.8
816.237	492.2
816.633	495.6
817.051	486.4
817.448	491
817.866	483.8
818.262	501.8
818.68	497
819.077	483.2
819.495	488
819.892	531.2
820.311	483.8
820.708	487.4
821.127	485
821.524	495
821.943	486.8
822.34	501.6
822.759	498
823.157	489.8
823.576	495.6
823.974	502.4
824.393	585.6
824.791	484.2
825.189	483.8
825.609	492.4
826.007	485.2
826.427	488.2
826.826	492.4
827.246	497.8
827.644	481
828.043	501.8
828.463	489
828.862	501.8
829.261	501.2
829.682	486.8
830.081	496.4
830.502	487.8
830.901	492.6
831.301	484.8
831.722	482.6
832.121	490.8
832.521	479.8
832.943	487.4
833.342	497
833.742	483.4
834.164	485.8
834.564	475
834.965	489.6
835.386	488
835.787	490.6
836.188	487
836.588	484.8
837.01	486.6
837.411	482.4
837.812	495
838.213	496.6
838.636	485.2
839.037	543.2
839.438	493
839.84	493.8
840.263	495.2
840.664	489.4
841.066	487
841.468	491.8
841.891	495.8
842.293	496.8
842.695	491.2
843.098	494.8
843.5	485.8
843.902	493.4
844.326	496.6
844.729	488.6
845.131	500.6
845.534	490.6
845.937	496.8
846.34	498.4
846.764	483.2
847.167	494.8
847.571	490.2
847.974	493
848.377	488.4
848.781	522
849.184	503.4
849.588	488.6
849.992	483.6
850.396	490.8
850.821	505.2
851.225	491.6
851.63	489.4
852.034	506
852.438	491.4
852.843	560.4
853.247	480
853.652	487
854.057	509.2
854.462	488.2
854.867	492.2
855.272	512.2
855.677	491
856.082	484.6
856.487	478.6
856.893	496.4
857.298	485.4
857.704	493.8
858.11	500.8
858.516	501.2
858.922	491.8
859.328	496.4
859.734	492.4
860.14	492.8
860.525	494.2
860.931	487.8
861.338	490.8
861.745	495.2
862.151	496.4
862.558	487.6
862.965	481.4
863.372	494.2
863.779	492.2
864.186	503.4
864.572	487.8
864.98	502.2
865.387	515.2
865.795	486.8
866.203	501.4
866.61	485.8
867.018	504
867.405	487
867.813	485.4
868.221	489.8
868.63	477.2
869.038	494.4
869.425	524.4
869.834	498.2
870.243	488.4
870.652	486.8
871.039	488.6
871.448	488.6
871.857	499.8
872.266	489.8
872.654	493.6
873.064	489.2
873.473	498.2
873.883	484.2
874.271	483.2
874.681	500.8
875.091	473.4
875.48	504.6
875.89	504.8
876.3	488.4
876.689	481.2
877.1	486.8
877.51	494.2
877.9	503
878.31	495.2
878.721	510
879.111	487.6
879.522	491.8
879.933	481.6
880.323	479
880.734	481.6
881.125	488.4
881.536	479.6
881.948	486.6
882.338	487.8
882.75	490.4
883.141	493.6
883.553	492.6
883.944	509.4
884.356	498.6
884.769	483
885.16	490
885.573	482.8
885.964	483.4
886.377	487.2
886.768	482.6
887.181	488
887.573	487.6
887.987	496.8
888.378	492.6
888.792	494.2
889.184	524.4
889.598	479.8
889.99	494.2
890.383	482.8
890.797	484.4
891.19	497.4
891.604	484.4
891.997	481.2
892.411	473.2
892.805	485.6
893.198	486
893.613	477.4
894.006	492.6
894.421	474.6
894.815	488.6
895.209	482.8
895.624	523.4
896.018	501
896.412	480.4
896.828	481.2
897.222	495.2
897.617	491
898.033	501.8
898.427	495.8
898.822	491.6
899.239	481.6
899.634	483.2
900.029	503.2
900.424	475.4
900.841	476.6
901.236	504.2
901.632	494.6
902.027	529.2
902.445	488.2
902.841	491.4
903.237	490
903.633	495.4
904.05	500.6
904.447	498.2
904.843	497.8
905.24	487
905.636	477.4
906.033	489.2
906.451	501.8
906.848	479.8
907.246	480
907.643	487
908.04	485.4
908.438	497.8
908.835	487.6
909.254	487.2
909.652	489.4
910.05	487.2
910.448	484.8
910.846	482.4
911.244	480.6
911.643	486.8
912.041	486.8
912.44	495.4
912.839	484.2
913.237	485.2
913.636	483.6
914.035	494.6
914.434	491.4
914.834	504.8
915.233	493.6
915.633	489.4
916.032	482.2
916.432	484.2
916.832	494.2
917.232	483.2
917.632	475.2
918.032	482.8
918.432	488.2
918.833	484.6
919.233	482.2
919.634	483.6
920.035	491.6
920.436	486.4
920.837	494.2
921.238	483.2
921.639	484.8
922.019	488
922.42	489.8
922.822	477.2
923.224	488.2
923.625	484.8
924.027	498.2
924.429	502.2
924.81	483
925.212	495
925.615	487.6
926.017	500.4
926.42	497.8
926.801	492
927.204	490.8
927.607	483.6
928.01	492.4
928.413	490.6
928.795	470.6
929.199	480.4
929.602	482.8
930.006	475.6
930.388	478.8
930.792	481.8
931.196	478.6
931.579	509.6
931.983	472.8
932.388	518
932.771	481.2
933.176	481.4
933.58	482.2
933.964	489
934.369	481
934.774	489.2
935.158	475.8
935.563	485.8
935.947	486
936.353	484.8
936.759	482.4
937.143	478.2
937.549	480.8
937.934	487
938.34	505.2
938.746	481.8
939.131	485
939.538	484
939.923	484.2
940.33	480
940.716	493.2
941.123	493.8
941.508	491.6
941.916	492.6
942.302	488.4
942.709	477.2
943.096	475.8
943.503	488.2
943.89	485
944.298	486.2
944.685	506.4
945.072	480.8
945.48	502.4
945.867	483.4
946.276	480.2
946.663	509.4
947.051	491.6
947.46	497.4
947.848	488.6
948.257	480.4
948.645	485.8
949.033	480
949.443	482.8
949.831	510.8
950.22	476.6
950.63	488.6
951.018	505.4
951.407	484.4
951.796	480.2
952.207	493.6
952.596	497.4
952.985	481.6
953.375	510.4
953.786	485
954.176	482.6
954.566	497.2
954.956	483.4
955.367	489.2
955.758	506
956.148	478.6
956.539	498.2
956.929	473.2
957.341	480.2
957.732	482.8
958.123	496.4
958.515	483.4
958.906	488.8
959.297	479.8
959.689	489.6
960.102	473
960.494	491.8
960.886	479.6
961.278	488.4
961.67	507.4
962.062	511.2
962.455	477.6
962.847	481.2
963.24	484.4
963.633	487.6
964.026	481.2
964.419	488.6
964.812	498.6
965.206	484.8
965.599	488.6
965.993	490.6
966.386	484.8
966.78	494
967.174	495.6
967.569	481.6
967.963	480.2
968.357	479.8
968.752	484.8
969.146	481.6
969.541	485.2
969.936	489.2
970.331	483.4
970.705	495.2
971.1	488.4
971.496	493
971.892	477.8
972.287	482.6
972.683	485.6
973.079	485.6
973.454	498.6
973.85	488
974.247	490.8
974.643	499.6
975.04	490
975.415	480
975.812	473.8
976.209	484.8
976.607	475.8
976.982	495.2
977.38	501.4
977.778	484.4
978.175	481
978.552	484.2
978.95	495
979.348	487.8
979.725	518.2
980.123	488
980.522	482.8
980.899	482.2
981.298	479.8
981.697	484
982.075	477.4
982.474	478.8
982.852	480.8
983.251	484.4
983.651	486.4
984.029	493.2
984.429	481.6
984.808	485.8
985.208	483
985.609	477.2
985.987	473
986.388	482.6
986.768	486.4
987.168	475
987.548	494.6
987.949	488.2
988.329	486.8
988.731	477.4
989.111	478
989.491	481.8
989.893	482.8
990.273	490
990.676	487.4
991.057	481.6
991.459	482.4
991.84	485.4
992.221	478.4
992.624	503.6
993.006	488
993.388	489
993.791	489
994.173	493.8
994.576	514
994.959	478.8
995.341	482.8
995.724	481.8
996.128	486.4
996.511	484.4
996.894	482
997.298	483
997.681	486.8
998.065	487.8
998.448	478.8
998.854	489.2
999.237	475.2
999.621	495.4
1000.01	497.2
1000.39	478.6
1000.8	479.2
1001.18	488
1001.56	487.8
1001.95	483.2
1002.33	495.8
1002.72	486.4
1003.13	484.8
1003.51	485.6
1003.9	488.2
1004.28	491.2
1004.67	476.4
1005.06	488.8
1005.44	503.6
1005.83	478
1006.21	487.8
1006.6	482.8
1006.99	493.6
1007.37	493
1007.76	484.2
1060.12	469.2
1060.51	473.8
1060.89	487
1061.28	488.2
1061.67	488.6
1062.06	484.6
1062.45	478
1062.83	473.6
1063.22	482.6
1063.61	514.6
1064	485
1064.39	480
1064.78	483
1065.14	490.4
1065.53	486
1065.92	481.6
1066.31	481.6
1066.7	483
1067.09	495.6
1067.46	493.6
1067.85	485
1068.24	482.2
1068.63	487.2
1069.02	472
1069.39	489
1069.78	487.2
1070.17	478.2
1070.57	478.6
1070.93	487.8
1071.33	479.8
1071.72	481.2
1072.11	476.6
1072.48	481
1072.87	480
1073.26	476.6
1073.64	483.6
1074.03	473.2
1074.4	475.2
1074.79	480.2
1075.19	479
1075.56	489.2
1075.95	486.2
1076.34	476.2
1076.72	486.4
1077.11	484.8
1077.48	492.4
1077.88	484
1078.25	481.6
1078.64	488.6
1079.02	483.4
1079.41	489.4
1079.78	481.2
1080.18	469.8
1080.55	534.8
1080.95	476.6
1081.32	482
1081.72	482
1082.09	475.8
1082.49	479.4
1082.86	479.8
1083.24	476.2
1083.63	470.2
1084.01	475.4
1084.38	485.6
1084.78	477.6
1085.16	481
1085.55	486.8
1085.93	487.6
1086.31	478.6
1086.7	499.6
1087.08	480.2
1087.46	488.4
1087.83	476.6
1088.23	492
1088.61	484.2
1088.99	480.2
1089.36	482.6
1089.76	491.2
1090.14	476.8
1090.52	491.8
1090.9	475.6
1091.27	492
1091.67	495.8
1092.05	486.2
1092.43	479.4
1092.81	481
1093.19	489.8
1093.57	477.4
1093.95	477.8
1094.35	494
1094.73	485.8
1095.11	475.4
1095.49	481.8
1095.87	480.6
1096.25	493.8
1096.63	486.6
1097.01	471
1097.39	485
1097.77	486.2
1098.15	483.4
1098.53	478
1098.91	478.6
1099.29	481.4
1099.68	494.6
1100.06	488.6
1100.44	478.4
1100.82	479
1101.18	482.6
1101.56	476.6
1101.95	480.2
1102.33	483
1102.71	482.8
1103.1	473.4
1103.48	471.6
1103.86	476.2
1104.22	488.4
1104.61	482
1104.99	480
1105.38	477
1105.76	483.4
1106.12	477.4
1106.51	511.6
1106.89	488.6
1107.26	484.8
1107.64	492.4
1108.03	472.2
1108.41	479.8
1108.78	484.8
1109.16	482.6
1109.55	489.8
1109.91	472.6
1110.3	466.2
1110.69	490.4
1111.05	480.2
1111.44	485.6
1111.8	479.2
1112.19	484.8
1112.58	488
1112.94	478.2
1113.33	478.4
1113.7	479.6
1114.09	477
1114.45	482.2
1114.84	473.8
1115.21	483
1115.6	480.2
1115.96	488.2
1116.35	487.4
1116.72	484.4
1117.11	491.8
1117.48	478.2
1117.85	473
1118.24	485.4
1118.6	479.2
1118.99	476.8
1119.36	481.2
1119.73	472.2
1120.12	485
1120.49	469.4
1120.86	484.8
1121.25	479.4
1121.62	468.8
1121.99	473.2
1122.38	491.2
1122.76	473.2
1123.13	472.8
1123.5	485.6
1123.89	484.4
1124.26	467.2
1124.63	475.6
1125	480.6
1125.4	479
1125.77	465.6
1126.14	472.2
1126.51	474.8
1126.88	488.8
1127.26	476.8
1127.63	466.6
1128.02	478.6
1128.4	470.2
1128.77	480.2
1129.14	477.8
1129.52	481.4
1129.89	481.4
1130.26	479.6
1130.64	476.8
1131.01	470.2
