#lambda/nm	C1
208.295	472.4
208.67	440.2
209.045	396.6
209.419	404
209.794	542.2
210.169	520.6
210.544	625.6
210.919	535.6
211.295	524.6
211.67	534.8
212.045	525.6
212.421	527
212.796	568.2
213.172	532.6
213.547	524.2
213.923	536
214.299	528
214.675	542.6
215.051	534
215.427	545.2
215.803	546.8
216.179	538.4
216.555	527.4
216.932	546.4
217.308	536
217.684	535.2
218.061	543.2
218.438	532.2
218.814	537
219.191	541.4
219.568	529
219.945	531.2
220.322	543
220.699	537.2
221.076	548.4
221.453	545.2
221.83	521.4
222.208	535.8
222.585	525.2
222.962	538.2
223.34	537.2
223.717	534.6
224.095	535.4
224.473	536.6
224.851	535.6
225.229	528.6
225.607	553.2
225.985	525.6
226.363	536.6
226.741	539.6
227.119	530
227.497	545.8
227.876	523.2
228.254	548.2
228.633	542.6
229.011	539.8
229.39	535.8
229.769	538.2
230.148	541.2
230.527	550
230.905	535.6
231.284	542.2
231.664	539.6
232.043	541.6
232.422	539.2
232.801	531.2
233.181	531.8
233.56	530.6
233.94	537.4
234.319	518
234.699	524.4
235.079	562.8
235.458	567.6
235.838	545
236.218	525.8
236.598	523
236.978	527
237.358	528
237.738	528.2
238.119	538.6
238.499	524.4
238.88	535.2
239.26	546
239.641	524
240.021	532.4
240.402	531.6
240.783	528.6
241.163	523
241.544	538.4
241.925	532.4
242.306	548.8
242.687	534.8
243.069	538.6
243.45	548
243.831	537.8
244.212	532.4
244.594	568.2
244.975	547
245.357	537.2
245.739	530.2
246.12	534
246.502	546.4
246.884	536
247.266	534
247.648	535.6
248.03	558
248.412	546.2
248.794	538.8
249.176	533.2
249.559	541
249.941	534.2
250.323	526.6
250.706	536.4
251.089	533
251.471	537.2
251.854	535.2
252.237	534.6
252.62	541.8
253.002	540
253.385	534
253.769	532.8
254.152	535
254.535	540.2
254.918	524.4
255.301	534.4
255.685	532.4
256.068	532.8
256.452	552.8
256.835	536
257.219	539.2
257.603	544.4
257.986	526.4
258.37	537.2
258.754	531.6
259.138	536.6
259.522	546
259.906	529.2
260.29	536.2
260.675	533.6
261.059	537.6
261.443	535
261.828	543
262.212	538.8
262.597	527.2
262.981	529.8
263.366	546.8
263.751	537.4
264.136	531.2
264.521	534.2
264.906	528.6
265.291	544.2
265.676	530.2
266.061	535
266.446	545
266.831	536.4
267.217	553.4
267.602	534.6
267.987	539
268.373	532.4
268.759	544.8
269.144	547.4
269.53	542.6
269.916	530.8
270.302	530.2
270.688	529.8
271.074	539.4
271.46	543.4
271.846	556.6
272.232	534
272.618	532
273.004	544.8
273.391	553.2
273.777	542.2
274.164	545.4
274.55	544.8
274.937	537
275.324	528.6
275.71	537
276.097	539.6
276.484	525.4
276.871	531.8
277.258	539.2
277.645	530.4
278.032	530
278.419	529.4
278.807	543.4
279.194	532.8
279.581	532.8
279.969	529.2
280.356	534.8
280.744	539.8
281.131	550
281.519	553
281.907	540.4
282.295	530.2
282.682	541.8
283.07	535.8
283.458	543.2
283.846	547.4
284.235	551.6
284.623	539.8
285.011	531
285.399	542.6
285.788	541.4
286.176	530.2
286.565	544.2
286.953	528.8
287.342	531.4
287.731	529
288.119	532.2
288.508	530.6
288.897	541.6
289.286	523
289.675	536.8
290.064	545.8
290.453	532
290.821	536.8
291.21	541.2
291.599	531.2
291.989	530
292.378	540
292.768	543.2
293.157	543.4
293.547	541.8
293.936	532.6
294.326	529.2
294.716	538.8
295.106	533.2
295.496	541.6
295.886	539
296.276	534.6
296.666	535
297.056	537
297.446	523.8
297.836	551.4
298.227	533.4
298.617	541.2
299.008	547.2
299.398	532
299.789	528
300.179	538.6
300.57	547
300.961	540
301.352	535
301.742	545.2
302.133	534.6
302.524	535.8
302.915	540
303.307	525
303.698	548.8
304.089	545.6
304.48	535.6
304.872	541.6
305.263	536.2
305.655	534
306.046	544.4
306.438	538
306.829	530.4
307.221	550.2
307.613	537
308.005	547.2
308.397	553.6
308.789	554.6
309.181	562.6
309.573	543.2
309.965	542.4
310.357	530.8
310.749	540.2
311.142	533
311.534	534.2
311.926	538.4
312.319	534.4
312.711	530.4
313.104	548.2
313.497	537.8
313.889	571.6
314.282	547.8
314.675	554.8
315.068	529.8
315.461	535.8
315.854	555
316.247	544.4
316.64	540.6
317.033	531.8
317.405	542.2
317.798	534.4
318.192	532
318.585	526.6
318.979	536.6
319.372	530
319.766	538.2
320.16	540
320.553	546.2
320.947	546.4
321.341	530.8
321.735	530.8
322.129	525.4
322.523	559
322.917	527.6
323.311	547.6
323.705	537.2
324.099	540.4
324.494	550.8
324.888	540.8
325.282	542.8
325.677	551.6
326.071	540.8
326.466	547.2
326.861	539.4
327.255	544.2
327.65	547
328.045	548.8
328.44	538
328.835	534.8
329.23	533.4
329.625	552.6
330.02	534.8
330.415	558.2
330.81	538.4
331.206	542
331.601	537
331.996	545.8
332.37	554.4
332.766	530
333.161	551.2
333.557	531
333.953	533.4
334.348	866.6
334.744	537.4
335.14	538.4
335.536	524
335.932	541.6
336.328	540.6
336.724	547.4
337.12	541
337.516	533.6
337.913	536.6
338.309	552.8
338.705	534.2
339.102	537.6
339.498	533.8
339.895	554.2
340.291	534.4
340.688	546.2
341.085	527.4
341.481	540
341.878	538.6
342.275	549.6
342.672	534.2
343.069	537.4
343.466	523
343.842	539.2
344.239	531.2
344.636	534.2
345.033	525.4
345.431	529
345.828	538
346.225	530
346.623	562.4
347.02	531.6
347.418	540
347.816	551.2
348.213	528.2
348.611	543
349.009	530.8
349.407	539.2
349.805	521.2
350.203	530.4
350.601	546.2
350.999	531.6
351.397	579.4
351.795	524.8
352.193	534.4
352.57	544.2
352.969	546.8
353.367	525.6
353.766	515.2
354.164	530.6
354.563	535
354.961	529.8
355.36	532.8
355.759	528.6
356.158	523.6
356.557	525.4
356.956	527.4
357.355	521.2
357.754	538.6
358.153	527.2
358.552	546.6
358.951	524.8
359.35	537.8
359.75	531.6
360.149	530
360.527	520.6
360.926	520.2
361.326	531.2
361.726	522
362.125	526.8
362.525	539.4
362.925	533.2
363.325	530.2
363.724	531.6
364.124	530
364.524	532.8
364.924	529.8
365.324	540.6
365.725	520.4
366.125	531.8
366.525	529.8
366.904	529
367.304	517.4
367.705	538
368.105	544.2
368.506	526
368.906	533.2
369.307	529.2
369.708	535.4
370.108	518.8
370.509	540.2
370.91	525.6
371.311	532.2
371.712	530.8
372.113	519.4
372.514	530
372.894	526
373.295	523.8
373.696	535.4
374.097	538
374.499	558.4
374.9	535
375.301	524.4
375.703	528.2
376.105	521.6
376.506	534.8
376.908	532.4
377.309	522.4
377.711	527.2
378.113	525.6
378.493	529
378.895	523.8
379.297	541.2
379.699	515.8
380.102	529.4
380.504	523.4
380.906	522.6
381.308	551.8
381.71	532.6
382.113	531.4
382.515	531.2
382.918	534.6
383.299	531.4
383.701	531
384.104	523
384.507	511.2
384.909	532.2
385.312	518.4
385.715	514.8
386.118	521.2
386.521	520.2
386.924	533.6
387.327	519.2
387.709	524.4
388.112	511
388.515	521.2
388.918	525.2
389.322	529.8
389.725	518
390.129	555.8
390.532	523
390.936	526.4
391.339	522.4
391.743	525.8
392.125	522
392.529	536
392.933	546.8
393.337	531.8
393.74	530.6
394.144	532.2
394.548	519.6
394.953	534.8
395.357	525
395.761	517
396.144	531.6
396.548	525.6
396.952	526.2
397.357	529.8
397.761	522.2
398.166	525.2
398.57	530.2
398.975	527.4
399.379	529.4
399.763	557.8
400.168	529.2
400.572	524.4
400.977	526.6
401.382	544
401.787	533.6
402.192	544.4
402.597	540.6
403.002	519.4
403.386	541.4
403.791	537.2
404.197	519.6
404.602	521.4
405.007	528.4
405.413	518.8
405.818	531.8
406.224	517.2
406.608	525
407.014	520.6
407.42	534.6
407.825	524
408.231	535
408.637	529.6
409.043	535.6
409.449	520.4
409.834	527.8
410.24	526.6
410.646	535.2
411.052	532
411.458	530
411.865	535.6
412.271	528.6
412.677	525.4
413.062	526
413.469	517.6
413.875	545
414.282	531
414.689	533
415.095	530.6
415.502	515.4
415.888	527.8
416.294	519.6
416.701	563.2
417.108	526.4
417.515	534
417.923	522.8
418.33	541
418.715	532
419.123	531
419.53	523.8
419.937	529
420.345	545
420.752	524.4
421.16	542.4
421.546	533.4
421.953	534.6
422.361	524.2
422.769	527.8
423.177	522.4
423.585	547.8
423.992	545.2
424.379	542
424.787	534.6
425.195	542.8
425.603	532.6
426.011	540.4
426.419	536.6
426.806	530.8
427.214	519.8
427.623	534.6
428.031	537.4
428.44	533.6
428.848	537
429.235	540.2
429.644	535.2
430.053	526.2
430.461	540.4
430.87	546.4
431.279	531
431.666	523.4
432.075	523
432.484	526.6
432.893	526.2
433.302	536
433.711	564.8
434.099	532.8
434.508	527
434.918	526.8
435.327	535.2
435.737	531
436.125	533.2
436.534	530.4
436.944	533.2
437.353	531.4
437.763	540.6
438.173	528.4
438.561	532
438.971	510
439.381	531.8
439.791	528
440.201	514
440.589	522
440.999	529.2
441.409	530
441.819	523.2
442.23	533.8
442.619	539.6
443.029	531.2
443.439	530
443.85	536.4
444.26	537.2
444.649	542.2
445.06	525
445.471	525.4
445.881	525.4
446.292	542.6
446.682	550.6
447.092	511.8
447.503	567
447.914	532
448.325	526.6
448.715	521.4
449.126	524.6
449.537	527.6
449.948	524.2
450.338	525.8
450.75	541.8
451.161	532.2
451.572	537.4
451.984	520.4
452.374	514
452.786	524.2
453.197	526.6
453.609	526.6
453.999	511.8
454.411	516.2
454.823	530.2
455.235	526.2
455.647	524.2
456.037	528.8
456.449	521.2
456.862	523.4
457.274	522.4
457.665	515.4
458.077	533.8
458.489	557.6
458.902	523.6
459.293	528
459.705	523.2
460.118	519.8
460.53	530.2
460.921	527
461.334	530.8
461.747	523
462.16	538
462.551	541.6
462.964	533
463.377	515.2
463.79	526.2
464.182	536.6
464.595	520
465.008	527.6
465.421	525
465.813	525
466.226	527.4
466.64	517
467.053	549.6
467.445	535.4
467.859	535.2
468.272	530.6
468.686	542
469.078	521.8
469.492	515.2
469.906	522.8
470.298	523.2
470.712	513.4
471.126	543.4
471.54	512.8
471.933	522.2
472.347	521.8
472.761	523.4
473.175	516
473.568	513.8
473.982	511.6
474.397	522.2
474.79	514.2
475.204	520.8
475.619	520.6
476.033	523.2
476.426	521
476.841	515.4
477.256	539.2
477.649	513
478.064	515.6
478.479	520.8
478.872	513.2
479.287	503
479.702	508.2
480.118	522
480.511	524.8
480.927	527.4
481.342	514.8
481.736	522.4
482.151	519.2
482.566	524.6
482.96	514.4
483.376	521.2
483.792	509.6
484.186	523.4
484.602	514.6
485.017	514.4
485.412	520.2
485.827	523.4
486.243	524.8
486.638	533.6
487.054	530
487.47	532.2
487.865	512.2
488.281	520
488.697	503.8
489.092	507
489.508	511.4
489.925	530.6
490.32	513
490.736	531.2
491.153	523
491.548	512.6
491.964	529.4
492.381	507.8
492.776	515.8
493.193	525.2
493.61	525.8
494.006	523.4
494.422	528.6
494.84	507.4
495.235	535.6
495.652	512.6
496.069	514.8
496.465	509.4
496.883	521.8
497.3	538.2
497.696	518
498.113	524.2
498.509	509
498.927	510
499.344	518
499.741	519
500.158	528.6
500.576	532.6
500.973	519
501.39	510.4
501.787	509
502.205	518.2
502.623	513.4
503.02	510.6
503.438	505
503.856	511.2
504.253	513.8
504.671	521.6
505.068	506.8
505.486	522.2
505.905	527.4
506.302	514.4
506.72	525
507.118	511.2
507.536	514.2
507.955	509.4
508.352	512
508.771	516.6
509.169	518.8
509.587	510.2
510.006	516
510.404	505
510.823	512.8
511.221	515.6
511.64	513.6
512.038	530.6
512.457	518.2
512.877	525.6
513.275	514
513.694	519.6
514.092	519
514.512	516.6
514.91	524.8
515.33	511.4
515.749	526.8
516.148	516.8
516.568	519.8
516.966	517
517.386	509.4
517.785	520
518.205	520.8
518.603	513.4
519.024	511
519.444	517.8
519.843	517.2
520.263	532.2
520.662	519.8
521.082	515.6
521.481	519.6
521.902	516.2
522.301	514.6
522.722	520.8
523.121	520.8
523.542	523.2
523.963	518.4
524.362	517
524.783	517.8
525.183	521.2
525.604	522.8
526.003	504.4
526.425	514.6
526.824	515
527.246	523.6
527.646	527.6
528.067	514.2
528.467	511.6
528.888	520.6
529.289	514.6
529.71	520.6
530.11	509.2
530.532	506.6
530.932	505.6
531.354	511.8
531.755	539.2
532.176	526.2
532.577	510.4
532.999	523
533.4	520.8
533.822	521.8
534.223	520.4
534.645	516
535.046	515.8
535.468	526
535.869	523.2
536.292	511.8
536.693	543.4
537.115	515.6
537.516	516
537.939	511.8
538.34	534.6
538.742	521
539.165	515.4
539.566	515.6
539.989	510.8
540.391	517.2
540.814	511.8
541.216	517.2
541.639	515.4
542.041	521.2
542.464	514
542.866	513.8
543.268	509.8
543.691	519.4
544.093	523.2
544.517	530
544.919	512.6
545.343	528
545.745	512
546.147	517.2
546.571	507.6
546.974	507.8
547.398	514
547.8	524.4
548.224	517.4
548.627	504.6
549.03	523.2
549.454	512.4
549.857	499.4
550.281	501
550.684	509.4
551.087	522.8
551.512	513.8
551.915	516
552.34	506.4
552.743	515.6
553.146	513.6
553.571	508.6
553.975	528.8
554.399	505.2
554.803	556.4
555.207	516.2
555.632	517
556.036	523.2
556.461	511.6
556.865	516.8
557.268	512.2
557.694	512.8
558.098	518.4
558.502	508.8
558.927	516.6
559.332	514.8
559.736	521
560.162	513.6
560.566	513
560.992	516.8
561.396	517.6
561.801	517
562.227	514
562.631	514.4
563.036	523
563.462	523.6
563.867	509
564.272	499.8
564.698	517.2
565.103	505.6
565.508	530.4
565.935	511.2
566.34	511.4
566.745	516.6
567.172	513
567.577	531.8
567.982	526.6
568.409	512.2
568.815	508.2
569.22	510.4
569.626	517.4
570.053	505.6
570.459	509.4
570.865	517
571.292	520.2
571.698	517.4
572.104	501.2
572.531	514.4
572.937	522.2
573.343	516
573.75	510.2
574.177	520.2
574.583	526
574.99	508
575.396	520.6
575.824	512.4
576.231	520.8
576.637	508.6
577.065	543.8
577.472	510.6
577.879	507.8
578.286	523.4
578.714	515.6
579.121	513
579.528	514.6
579.935	521.6
580.364	517.4
580.771	501.8
581.178	505.2
581.585	520.2
582.014	523.4
582.421	505.2
582.829	514.8
583.236	517
583.644	506.4
584.073	509.2
584.481	514.4
584.889	509.8
585.296	523.2
585.726	516.6
586.134	511.4
586.542	511.4
586.95	528.4
587.358	509
587.787	508.6
588.196	502.6
588.604	513.8
589.012	519.4
589.421	504.4
589.851	508.2
590.259	515
590.668	503.8
591.076	548
591.485	506.2
591.894	506.6
592.324	520
592.733	526.2
593.142	511.8
593.551	520.6
593.96	542
594.369	503.4
594.8	500.8
595.209	518.6
595.618	495.2
596.028	516.8
596.437	506.4
596.847	514
597.256	516.6
597.687	511
598.097	517.2
598.507	502
598.917	513.4
599.327	522.2
599.736	512.4
600.146	520.6
600.556	505
600.988	517.8
601.398	505
601.808	513.2
602.219	498.8
602.629	519.4
603.039	510.4
603.45	531.4
603.86	509
604.271	525
604.703	516.4
605.114	515.4
605.525	512
605.935	514.4
606.346	528.8
606.757	517.4
607.168	511.4
607.579	506.4
607.99	520
608.402	508.8
608.813	522.4
609.224	508
609.636	505.6
610.047	506.8
610.48	517.6
610.892	525.6
611.303	524.4
611.715	506.4
612.127	508.8
612.539	504.6
612.95	511.6
613.362	506.6
613.774	508.6
614.186	505.6
614.599	512.8
615.011	517.4
615.423	516.4
615.835	512
616.248	506.6
616.66	525.4
617.073	502.8
617.485	512.8
617.898	523.8
618.311	515.4
618.723	508.4
619.136	536
619.549	520.6
619.962	530.2
620.375	521.6
620.788	520.8
621.201	506.6
621.614	522.4
622.028	506.4
622.441	513.8
622.854	521.4
623.268	505.6
623.681	519.8
624.095	513
624.509	520.6
624.922	514
625.336	506.2
625.728	517
626.142	515.4
626.556	519
626.97	510.6
627.384	513
627.799	514.8
628.213	526.2
628.627	516.2
629.041	507.8
629.456	507.2
629.87	512.4
630.285	525.4
630.699	527.4
631.093	518.4
631.507	519.6
631.922	520.2
632.337	527.6
632.752	502.6
633.167	510.4
633.582	515.6
633.997	509.6
634.412	518.6
634.806	507.6
635.221	510.6
635.637	520.2
636.052	505.4
636.468	514.6
636.883	528.6
637.299	515.2
637.715	497.2
638.109	508
638.525	512.6
638.941	524.4
639.357	512.6
639.773	522.6
640.189	513.8
640.584	514.2
641	509.8
641.416	505.2
641.832	508.4
642.249	506.6
642.665	510.6
643.06	516.8
643.477	519.4
643.894	499.8
644.31	504.8
644.727	511.8
645.123	511.4
645.54	504
645.957	519.2
646.374	520.8
646.77	511.8
647.187	529.6
647.604	508.2
648.021	501.2
648.439	506.6
648.835	520.2
649.252	517
649.67	510.2
650.088	513.2
650.484	509.6
650.902	519.2
651.32	516.6
651.738	503.2
652.134	512.8
652.552	526.2
652.971	516.4
653.389	510.4
653.786	518
654.204	520.2
654.622	510.4
655.019	512.4
655.438	509
655.857	512.6
656.275	513.8
656.673	501
657.091	520.2
657.51	509.4
657.908	515
658.327	516.2
658.746	501.2
659.144	507.4
659.563	519.4
659.982	509.2
660.38	502.4
660.8	502
661.219	523
661.617	512.8
662.037	506.6
662.457	519.4
662.855	497
663.275	533.4
663.695	509.6
664.094	505.2
664.514	508.6
664.934	505.4
665.333	519.2
665.753	502.8
666.152	498.8
666.572	502.8
666.993	519
667.392	503
667.812	501.8
668.212	507.8
668.632	519.2
669.053	503
669.453	512.4
669.874	507.6
670.273	514.6
670.694	503.4
671.116	515
671.515	518.6
671.937	505.6
672.337	499.4
672.758	507.6
673.158	523.8
673.58	500.4
673.98	512.4
674.402	519.8
674.824	510.2
675.224	508.2
675.646	502.4
676.047	504.6
676.469	504.8
676.869	510
677.292	510.4
677.693	505.8
678.115	500.6
678.516	508.6
678.939	507.8
679.34	510.4
679.762	513.4
680.164	507.4
680.586	499.8
680.988	509.2
681.411	525.6
681.812	506.4
682.236	493.4
682.637	497.8
683.061	498
683.462	511.8
683.864	504.6
684.288	513.4
684.69	502.2
685.114	520.2
685.516	516.8
685.94	500.6
686.342	516.2
686.766	503.8
687.168	501.6
687.571	515.8
687.995	508.2
688.398	501.6
688.822	503
689.225	520.6
689.628	526
690.052	512.4
690.456	511.4
690.88	507.8
691.284	505.2
691.687	505.4
692.112	498.2
692.515	497.4
692.919	507.8
693.344	511.4
693.747	500.6
694.173	502.2
694.577	513.6
694.98	511.2
695.406	497.6
695.81	501
696.214	511.2
696.64	506
697.044	503.6
697.448	512.2
697.874	502.8
698.279	510.8
698.684	493.2
699.11	501.8
699.514	498
699.919	500.2
700.324	501.4
700.75	501.2
701.156	508.8
701.561	513.4
701.987	510
702.393	508.6
702.798	512.2
703.203	504.6
703.63	502.4
704.036	493.8
704.442	509.2
704.847	497.4
705.274	505.4
705.68	513.4
706.086	516.2
706.492	500
706.92	507
707.326	512.4
707.732	499.8
708.139	505
708.545	494
708.973	494
709.38	504.8
709.786	497.2
710.193	519
710.6	511
711.028	497.8
711.435	504.8
711.842	507.4
712.249	497.2
712.656	509
713.064	506.2
713.492	494.4
713.9	504.4
714.307	502.6
714.715	505.2
715.123	505.4
715.53	512.8
715.938	508.2
716.367	507.4
716.775	504.4
717.184	493
717.592	504.4
718	511.2
718.408	532.2
718.816	539.6
719.225	505.2
719.633	509.2
720.042	499.8
720.472	496.8
720.881	515.4
721.29	498.8
721.699	495.2
722.108	503.8
722.517	500.6
722.926	499
723.335	508
723.744	505.8
724.154	500.2
724.563	505.6
724.973	506
725.382	501
725.792	502.4
726.202	493.4
726.612	512.6
727.022	500.6
727.432	502.6
779.813	506.4
780.223	539.6
780.634	501.4
781.044	505
781.454	498.8
781.865	518.8
782.276	497.4
782.686	505.2
783.097	502.6
783.508	500.4
783.919	506.6
784.33	517.8
784.741	519.4
785.152	506.6
785.563	493.8
785.974	502.4
786.386	517.2
786.776	502
787.188	504
787.599	497.8
788.011	507.6
788.423	506.2
788.835	498
789.247	495.4
789.659	505.8
790.071	501
790.483	534.6
790.874	500.4
791.286	506.4
791.699	490.6
792.111	497.4
792.524	503
792.937	498.4
793.349	496.2
793.741	498.6
794.154	497.2
794.567	505.4
794.98	503
795.393	495
795.785	511.2
796.198	494.6
796.612	507.2
797.026	499.8
797.439	489.6
797.831	496.2
798.245	501.4
798.659	502.8
799.073	503.6
799.487	495.4
799.88	501.4
800.294	503.2
800.708	506.6
801.123	497.6
801.516	522.6
801.93	492.6
802.345	486.6
802.76	495.4
803.153	513
803.568	505.8
803.983	505.8
804.377	514.4
804.792	486.4
805.207	491.6
805.601	508.4
806.016	527
806.432	500.6
806.826	531
807.242	508.4
807.658	506.6
808.052	501.8
808.468	497.2
808.884	498
809.279	497.2
809.695	507.6
810.111	518
810.506	498.2
810.922	511.8
811.339	500.6
811.734	505
812.151	500.2
812.546	496.6
812.963	497.4
813.38	507
813.776	498.8
814.193	520.4
814.589	495.4
815.006	497.4
815.402	486.4
815.82	504.8
816.237	505
816.633	500.4
817.051	500.4
817.448	507.8
817.866	501.4
818.262	517.4
818.68	496.6
819.077	499
819.495	499.4
819.892	537.2
820.311	493.6
820.708	499
821.127	502.2
821.524	509.6
821.943	498.6
822.34	511.6
822.759	504.8
823.157	493.4
823.576	512.8
823.974	510
824.393	593.2
824.791	499.4
825.189	490.6
825.609	497.6
826.007	499.4
826.427	492.6
826.826	493.2
827.246	503.8
827.644	486
828.043	506.2
828.463	501.4
828.862	501.4
829.261	506.4
829.682	496.2
830.081	502.2
830.502	502
830.901	504.2
831.301	487.4
831.722	483.4
832.121	497.8
832.521	497.6
832.943	496.6
833.342	502.8
833.742	493.8
834.164	501.2
834.564	492.8
834.965	504.2
835.386	497
835.787	499.4
836.188	508.6
836.588	498.6
837.01	504
837.411	494.4
837.812	510.6
838.213	508.6
838.636	495
839.037	550.8
839.438	507.6
839.84	494.2
840.263	507.6
840.664	496.2
841.066	505.8
841.468	496.6
841.891	499.8
842.293	515
842.695	511.2
843.098	507.6
843.5	490.8
843.902	506.6
844.326	505.6
844.729	498.8
845.131	512.2
845.534	496.4
845.937	504.6
846.34	512.8
846.764	493
847.167	499.4
847.571	482.4
847.974	494.6
848.377	498.8
848.781	529
849.184	508.6
849.588	491.8
849.992	495.4
850.396	493.4
850.821	508.4
851.225	497.8
851.63	494
852.034	509.4
852.438	506.8
852.843	563.6
853.247	490.6
853.652	490.2
854.057	515.2
854.462	499.4
854.867	496
855.272	527.8
855.677	502.2
856.082	496.6
856.487	489
856.893	504.8
857.298	495
857.704	500
858.11	502.8
858.516	506.6
858.922	501.8
859.328	505.4
859.734	504.8
860.14	499
860.525	501
860.931	493.2
861.338	498.6
861.745	498
862.151	501.4
862.558	498.2
862.965	497.8
863.372	493
863.779	499.4
864.186	514.8
864.572	498.6
864.98	510.4
865.387	528.8
865.795	491.2
866.203	504.8
866.61	492.6
867.018	502.4
867.405	493.6
867.813	504.2
868.221	497.4
868.63	496.2
869.038	504.6
869.425	534
869.834	507.4
870.243	496.8
870.652	498
871.039	498.8
871.448	496.4
871.857	501
872.266	502.4
872.654	505.8
873.064	503.8
873.473	507
873.883	490.6
874.271	492.4
874.681	510
875.091	497.4
875.48	512.6
875.89	517.2
876.3	499
876.689	490.4
877.1	498.4
877.51	494.8
877.9	511.8
878.31	498.2
878.721	528.4
879.111	499.8
879.522	493.2
879.933	494.6
880.323	492.8
880.734	497.4
881.125	497.2
881.536	501.8
881.948	492.4
882.338	490.2
882.75	504.6
883.141	501.6
883.553	496.8
883.944	528
884.356	501.2
884.769	499.2
885.16	500.2
885.573	495.8
885.964	495.2
886.377	499.4
886.768	488.8
887.181	491
887.573	485.2
887.987	502.6
888.378	511.2
888.792	496.2
889.184	537.2
889.598	487
889.99	502.8
890.383	494.4
890.797	480
891.19	504
891.604	490.2
891.997	491.6
892.411	493.4
892.805	492.4
893.198	496.6
893.613	489.2
894.006	495.2
894.421	489.4
894.815	494
895.209	493.8
895.624	534.6
896.018	512.4
896.412	492.6
896.828	493.2
897.222	507.2
897.617	499.8
898.033	512
898.427	494
898.822	504.8
899.239	493
899.634	492.8
900.029	515.2
900.424	493
900.841	495.4
901.236	511.4
901.632	503.8
902.027	548.4
902.445	499
902.841	498.8
903.237	502.6
903.633	508
904.05	506.2
904.447	506.6
904.843	501.4
905.24	487.6
905.636	484.8
906.033	491
906.451	505.8
906.848	482.4
907.246	500
907.643	502
908.04	509
908.438	513.8
908.835	496.8
909.254	493.2
909.652	506.6
910.05	501.8
910.448	492.4
910.846	505
911.244	489.4
911.643	503.4
912.041	496.2
912.44	506.6
912.839	492
913.237	491.2
913.636	489.4
914.035	508.2
914.434	493
914.834	508.2
915.233	504
915.633	496.2
916.032	492.2
916.432	494
916.832	506.8
917.232	494.6
917.632	490
918.032	496.6
918.432	490.4
918.833	498.4
919.233	495.2
919.634	486.2
920.035	505
920.436	491.4
920.837	501.8
921.238	487.8
921.639	489.8
922.019	492.8
922.42	505.6
922.822	493.4
923.224	496.8
923.625	498
924.027	491.8
924.429	513
924.81	500.6
925.212	495.4
925.615	495.2
926.017	491.4
926.42	505.6
926.801	502
927.204	508.6
927.607	506.8
928.01	508.6
928.413	493.8
928.795	483
929.199	489.2
929.602	492.4
930.006	491.2
930.388	488.6
930.792	505.8
931.196	496.6
931.579	529.4
931.983	493.2
932.388	532
932.771	491.6
933.176	489.4
933.58	488.8
933.964	498.2
934.369	490.2
934.774	501.4
935.158	497.2
935.563	492.8
935.947	498
936.353	508.2
936.759	485.6
937.143	496.2
937.549	489.6
937.934	507.8
938.34	510.6
938.746	486.4
939.131	498.6
939.538	490.2
939.923	493.2
940.33	490.8
940.716	501.2
941.123	493
941.508	507.6
941.916	509
942.302	501
942.709	489.8
943.096	493.2
943.503	498.6
943.89	492
944.298	491
944.685	518.6
945.072	495.6
945.48	497.6
945.867	486.2
946.276	488.8
946.663	516.4
947.051	510.8
947.46	500.4
947.848	496.2
948.257	491
948.645	495.2
949.033	485
949.443	490.4
949.831	530.6
950.22	485.8
950.63	507.2
951.018	519
951.407	488.4
951.796	493.8
952.207	497
952.596	500.4
952.985	488.6
953.375	527.6
953.786	497.4
954.176	487
954.566	502.4
954.956	491.8
955.367	490.8
955.758	508
956.148	489
956.539	509.4
956.929	488.8
957.341	495.4
957.732	493.4
958.123	503.4
958.515	484.6
958.906	501.2
959.297	492.8
959.689	488
960.102	492.6
960.494	495.8
960.886	490.2
961.278	497.6
961.67	511.6
962.062	521
962.455	494.2
962.847	486
963.24	483
963.633	494.2
964.026	479
964.419	496
964.812	498.8
965.206	490.4
965.599	500.6
965.993	493
966.386	492.8
966.78	506.8
967.174	505.4
967.569	493.4
967.963	484.2
968.357	488
968.752	487
969.146	492.4
969.541	490.8
969.936	489.6
970.331	498.6
970.705	493.8
971.1	496
971.496	503.4
971.892	491
972.287	492.8
972.683	489.2
973.079	491.6
973.454	505.8
973.85	496.2
974.247	507
974.643	516.6
975.04	497
975.415	498.6
975.812	489.6
976.209	501.4
976.607	481.8
976.982	502.6
977.38	509.6
977.778	492.4
978.175	496.6
978.552	493.6
978.95	496
979.348	498.2
979.725	533.4
980.123	493.6
980.522	489.6
980.899	493
981.298	487.4
981.697	489.4
982.075	489.2
982.474	491.4
982.852	495
983.251	492.2
983.651	488.2
984.029	499.8
984.429	487.2
984.808	484.2
985.208	490.2
985.609	482
985.987	484.4
986.388	491.6
986.768	494.4
987.168	487.8
987.548	493.4
987.949	499.2
988.329	498.4
988.731	479.6
989.111	492.6
989.491	493.6
989.893	493
990.273	498.6
990.676	493.4
991.057	484.6
991.459	488.4
991.84	498.2
992.221	476
992.624	507.4
993.006	491.8
993.388	499.2
993.791	497.4
994.173	495
994.576	524.4
994.959	487.2
995.341	484.8
995.724	497.4
996.128	492
996.511	495.2
996.894	485.6
997.298	483.4
997.681	503.4
998.065	496.2
998.448	490
998.854	503.6
999.237	481
999.621	501.6
1000.01	501.6
1000.39	493.2
1000.8	488.2
1001.18	496.8
1001.56	492.8
1001.95	494.6
1002.33	492.2
1002.72	484.6
1003.13	496.8
1003.51	493.4
1003.9	490.6
1004.28	514.4
1004.67	496.8
1005.06	488.8
1005.44	521.2
1005.83	489.4
1006.21	498.2
1006.6	496.2
1006.99	495.6
1007.37	497.2
1007.76	492.8
1060.12	491
1060.51	489.2
1060.89	504.2
1061.28	505.6
1061.67	499.8
1062.06	494.8
1062.45	491
1062.83	493.4
1063.22	498.4
1063.61	521.2
1064	498.4
1064.39	492.6
1064.78	490
1065.14	506.2
1065.53	486.8
1065.92	489.4
1066.31	486.8
1066.7	490.8
1067.09	505.2
1067.46	504.8
1067.85	488
1068.24	493.8
1068.63	493
1069.02	491
1069.39	491.8
1069.78	487.6
1070.17	490.8
1070.57	489.8
1070.93	500
1071.33	482
1071.72	492.6
1072.11	479.2
1072.48	493.2
1072.87	490.2
1073.26	493.6
1073.64	486.6
1074.03	482.8
1074.4	483.4
1074.79	484.4
1075.19	496
1075.56	496.2
1075.95	482.2
1076.34	488.4
1076.72	491.2
1077.11	506.6
1077.48	493.2
1077.88	491.4
1078.25	492
1078.64	506.4
1079.02	496.2
1079.41	494.4
1079.78	494.8
1080.18	486.4
1080.55	544.2
1080.95	483.4
1081.32	485.6
1081.72	493.6
1082.09	492.2
1082.49	482
1082.86	484.6
1083.24	480.2
1083.63	480.8
1084.01	488.8
1084.38	491.4
1084.78	481.2
1085.16	481.4
1085.55	497.4
1085.93	500
1086.31	492.2
1086.7	513.4
1087.08	482.4
1087.46	491.2
1087.83	485
1088.23	499.4
1088.61	484.2
1088.99	493.4
1089.36	485.4
1089.76	486.8
1090.14	489.4
1090.52	490.2
1090.9	488.6
1091.27	505.2
1091.67	509
1092.05	498.6
1092.43	480
1092.81	499
1093.19	503.2
1093.57	488.6
1093.95	489.2
1094.35	495.4
1094.73	501.6
1095.11	488
1095.49	485.8
1095.87	496.8
1096.25	499.2
1096.63	495.8
1097.01	487.8
1097.39	493.6
1097.77	488.8
1098.15	491.2
1098.53	481.4
1098.91	484.8
1099.29	481.8
1099.68	506
1100.06	498.2
1100.44	498.2
1100.82	496.4
1101.18	486.8
1101.56	489
1101.95	488.2
1102.33	491.8
1102.71	486.2
1103.1	480.4
1103.48	475.4
1103.86	482.8
1104.22	498.4
1104.61	486
1104.99	494.2
1105.38	489.8
1105.76	492.6
1106.12	490
1106.51	510.2
1106.89	504
1107.26	490.8
1107.64	502.6
1108.03	485.8
1108.41	486.2
1108.78	493
1109.16	495.8
1109.55	493.8
1109.91	487
1110.3	481.6
1110.69	498.2
1111.05	490.2
1111.44	487
1111.8	492.4
1112.19	491.6
1112.58	493
1112.94	488.8
1113.33	492
1113.7	482.4
1114.09	490
1114.45	493.4
1114.84	497.2
1115.21	499
1115.6	488
1115.96	493
1116.35	497.4
1116.72	485
1117.11	494.6
1117.48	491.2
1117.85	491.6
1118.24	500.8
1118.6	493.8
1118.99	483.6
1119.36	496.8
1119.73	497.6
1120.12	486.8
1120.49	478
1120.86	494.2
1121.25	487
1121.62	482.8
1121.99	485.4
1122.38	488.8
1122.76	489.2
1123.13	484.6
1123.5	493.6
1123.89	500
1124.26	477.8
1124.63	488.8
1125	492.2
1125.4	479.8
1125.77	481.6
1126.14	476.2
1126.51	486
1126.88	492.6
1127.26	492.4
1127.63	470
1128.02	487.8
1128.4	481.4
1128.77	489.6
1129.14	489.8
1129.52	493.2
1129.89	499.6
1130.26	478.2
1130.64	486
1131.01	487.6
