#lambda/nm	C1
208.295	469
208.67	436.6
209.045	402.8
209.419	401
209.794	543.6
210.169	521.8
210.544	629.4
210.919	538.6
211.295	534
211.67	536
212.045	539
212.421	534.4
212.796	567.6
213.172	526.8
213.547	530.8
213.923	541.2
214.299	527
214.675	542.4
215.051	538.2
215.427	543.6
215.803	555.6
216.179	544
216.555	532.6
216.932	539
217.308	539.2
217.684	535.8
218.061	539.4
218.438	539.2
218.814	533.2
219.191	536.8
219.568	535.6
219.945	535.4
220.322	544
220.699	531
221.076	549.8
221.453	543.2
221.83	523.2
222.208	530.4
222.585	519.6
222.962	537.6
223.34	539.8
223.717	530.2
224.095	536.2
224.473	532
224.851	532.4
225.229	531.4
225.607	550.6
225.985	537.4
226.363	534.8
226.741	536.8
227.119	536.2
227.497	548.8
227.876	527
228.254	538
228.633	545.4
229.011	535.6
229.39	534
229.769	534.6
230.148	540
230.527	549.8
230.905	534.2
231.284	538.2
231.664	530
232.043	546.4
232.422	539.4
232.801	531.4
233.181	543.8
233.56	536.4
233.94	542.8
234.319	522.4
234.699	537
235.079	569.8
235.458	561.2
235.838	557.8
236.218	533.2
236.598	536.2
236.978	530.4
237.358	525.8
237.738	530.4
238.119	536.6
238.499	521.2
238.88	533.2
239.26	552.6
239.641	538
240.021	533.6
240.402	532.6
240.783	531.4
241.163	536.6
241.544	538.6
241.925	539.6
242.306	553.6
242.687	535.8
243.069	541.6
243.45	540
243.831	528.8
244.212	531.6
244.594	566.8
244.975	533.6
245.357	531.8
245.739	530
246.12	536.8
246.502	543.4
246.884	527.4
247.266	529.6
247.648	534
248.03	552.6
248.412	539
248.794	538.2
249.176	531.6
249.559	546.8
249.941	530.8
250.323	528.2
250.706	529.6
251.089	529.2
251.471	525.6
251.854	534.8
252.237	535.4
252.62	531.4
253.002	536.4
253.385	529
253.769	547
254.152	531.4
254.535	543.2
254.918	537
255.301	530.4
255.685	536.4
256.068	527.6
256.452	554.8
256.835	539
257.219	541.6
257.603	545.8
257.986	521.6
258.37	543
258.754	527.8
259.138	535.8
259.522	536.4
259.906	526.8
260.29	533.2
260.675	531.4
261.059	535.8
261.443	522.2
261.828	531.4
262.212	540.2
262.597	529.4
262.981	529
263.366	547.2
263.751	536.4
264.136	534
264.521	532
264.906	534.8
265.291	538.6
265.676	532.4
266.061	536.4
266.446	545
266.831	543.4
267.217	550.6
267.602	539
267.987	534.2
268.373	535.8
268.759	545.2
269.144	539.8
269.53	531.2
269.916	529
270.302	528.6
270.688	546.8
271.074	536.2
271.46	551.4
271.846	557.8
272.232	529
272.618	526.6
273.004	534.4
273.391	543.2
273.777	542
274.164	531.6
274.55	542.4
274.937	531.4
275.324	526.2
275.71	537.6
276.097	535.6
276.484	525.6
276.871	540.2
277.258	530.6
277.645	523.2
278.032	524.4
278.419	527.4
278.807	532
279.194	523.6
279.581	527.4
279.969	541
280.356	536
280.744	539.4
281.131	554.2
281.519	547
281.907	526.6
282.295	529.4
282.682	542.2
283.07	542
283.458	538.4
283.846	536.8
284.235	543.4
284.623	538.8
285.011	524.2
285.399	536
285.788	537.4
286.176	533.4
286.565	540.2
286.953	534
287.342	539.2
287.731	527.2
288.119	531.8
288.508	535
288.897	533.6
289.286	522.4
289.675	536.4
290.064	544.2
290.453	531.6
290.821	533
291.21	548.2
291.599	533.6
291.989	537.8
292.378	540.8
292.768	551.2
293.157	538
293.547	548.4
293.936	538.4
294.326	529.6
294.716	542
295.106	536.6
295.496	543.6
295.886	546
296.276	531.2
296.666	528.4
297.056	528.6
297.446	522.6
297.836	549
298.227	535.6
298.617	541.2
299.008	550
299.398	531.8
299.789	534
300.179	542.4
300.57	546.2
300.961	531.4
301.352	530.8
301.742	537.4
302.133	530.8
302.524	536.6
302.915	540.6
303.307	528.4
303.698	543.8
304.089	548.4
304.48	536.4
304.872	536.4
305.263	532.8
305.655	538.6
306.046	535.4
306.438	538.4
306.829	530.6
307.221	544.8
307.613	533.8
308.005	542.8
308.397	549.6
308.789	551.6
309.181	554.8
309.573	544.4
309.965	543.4
310.357	537.2
310.749	543.4
311.142	527.8
311.534	530
311.926	537.2
312.319	533
312.711	532.6
313.104	549.2
313.497	532.2
313.889	562.4
314.282	550.6
314.675	557.2
315.068	543.4
315.461	536.2
315.854	555
316.247	550
316.64	534
317.033	537.6
317.405	547.4
317.798	540
318.192	545.8
318.585	527
318.979	547
319.372	534
319.766	534
320.16	549
320.553	544.2
320.947	549
321.341	525.6
321.735	526.6
322.129	524.6
322.523	557.6
322.917	534.2
323.311	540.4
323.705	539.8
324.099	549.8
324.494	549.4
324.888	544.8
325.282	536.2
325.677	545.6
326.071	547.4
326.466	550.8
326.861	540.8
327.255	549.2
327.65	547.2
328.045	553.4
328.44	538.2
328.835	532
329.23	533
329.625	562.2
330.02	531
330.415	552.2
330.81	537.6
331.206	540.2
331.601	530.4
331.996	542.2
332.37	557.8
332.766	526.4
333.161	550.2
333.557	530.6
333.953	537
334.348	880.2
334.744	541
335.14	530
335.536	527.4
335.932	541.2
336.328	530.6
336.724	542.6
337.12	535.4
337.516	541.4
337.913	532.6
338.309	552
338.705	537.2
339.102	543.4
339.498	536.6
339.895	545.8
340.291	537.2
340.688	545.8
341.085	531.2
341.481	535.6
341.878	537.2
342.275	548.4
342.672	526.4
343.069	523.8
343.466	524.8
343.842	541.2
344.239	527.8
344.636	535.2
345.033	520.6
345.431	518.4
345.828	530.2
346.225	532
346.623	563.2
347.02	535.2
347.418	529.4
347.816	543.4
348.213	524.4
348.611	535
349.009	521.4
349.407	536.6
349.805	532.8
350.203	523.4
350.601	540.2
350.999	529.2
351.397	584.2
351.795	531.2
352.193	545
352.57	540.2
352.969	540.4
353.367	525.6
353.766	531.4
354.164	530
354.563	537.8
354.961	534.8
355.36	523
355.759	531.4
356.158	524.2
356.557	528.2
356.956	522
357.355	527.8
357.754	525.4
358.153	529.8
358.552	545
358.951	528.2
359.35	539.6
359.75	519.6
360.149	522.4
360.527	516.2
360.926	525
361.326	533.4
361.726	527.2
362.125	515.6
362.525	531
362.925	520.8
363.325	532.2
363.724	537
364.124	525.6
364.524	523.2
364.924	531
365.324	534.8
365.725	523.8
366.125	527.8
366.525	530
366.904	527
367.304	516.2
367.705	536.2
368.105	539
368.506	528
368.906	533.4
369.307	527.6
369.708	530.2
370.108	522.2
370.509	533
370.91	518
371.311	521.8
371.712	522.2
372.113	523
372.514	504.2
372.894	519.6
373.295	523
373.696	529.8
374.097	535
374.499	537.2
374.9	519.4
375.301	520.2
375.703	527
376.105	515
376.506	533.4
376.908	527.8
377.309	526.2
377.711	527.8
378.113	526.8
378.493	523
378.895	513
379.297	530.4
379.699	511.4
380.102	526.4
380.504	527.4
380.906	520.8
381.308	546.8
381.71	533
382.113	534.4
382.515	529.6
382.918	531.8
383.299	528
383.701	537.6
384.104	532.8
384.507	517.4
384.909	526.6
385.312	520.6
385.715	514.2
386.118	531.4
386.521	515.4
386.924	536.4
387.327	518.4
387.709	516.8
388.112	518.6
388.515	531.2
388.918	525
389.322	531
389.725	529.4
390.129	539.2
390.532	529.2
390.936	526.2
391.339	521.6
391.743	531.4
392.125	522
392.529	527.2
392.933	535
393.337	530.4
393.74	537.6
394.144	526.8
394.548	518.2
394.953	524.2
395.357	529.2
395.761	523.8
396.144	526.4
396.548	526.8
396.952	528.2
397.357	527.6
397.761	527.4
398.166	524
398.57	535.4
398.975	519.2
399.379	529.2
399.763	573.2
400.168	526.4
400.572	525.2
400.977	524
401.382	544.8
401.787	535.6
402.192	550
402.597	536.8
403.002	515.8
403.386	536.6
403.791	535.8
404.197	518.6
404.602	530.4
405.007	522.2
405.413	521
405.818	528.6
406.224	518.8
406.608	523.2
407.014	520
407.42	550.2
407.825	521.6
408.231	534.4
408.637	528.6
409.043	532.4
409.449	524
409.834	529.2
410.24	529.4
410.646	537.4
411.052	539.6
411.458	537
411.865	529.4
412.271	533.4
412.677	528.4
413.062	536.8
413.469	520.4
413.875	544.2
414.282	539.2
414.689	528.2
415.095	529.6
415.502	524.2
415.888	525.6
416.294	510.4
416.701	565.6
417.108	521.8
417.515	536.4
417.923	528.6
418.33	545
418.715	534.8
419.123	526.2
419.53	525
419.937	532.8
420.345	539.6
420.752	523.4
421.16	536.6
421.546	532.6
421.953	537
422.361	523.6
422.769	525.4
423.177	522.4
423.585	555.8
423.992	548
424.379	529.2
424.787	537.6
425.195	549.8
425.603	527.4
426.011	543
426.419	538.6
426.806	528.4
427.214	534
427.623	536.8
428.031	549.4
428.44	532.4
428.848	539.2
429.235	538.6
429.644	533.4
430.053	530.4
430.461	539.2
430.87	554.6
431.279	543.4
431.666	536.8
432.075	532
432.484	531
432.893	522.2
433.302	544.4
433.711	565.6
434.099	543.2
434.508	527.8
434.918	526.2
435.327	533.4
435.737	529.6
436.125	532.6
436.534	528
436.944	531.6
437.353	529.2
437.763	544.6
438.173	523.8
438.561	526.4
438.971	512.2
439.381	526.2
439.791	527.2
440.201	504
440.589	520.4
440.999	536.6
441.409	525.4
441.819	521.2
442.23	531
442.619	534.6
443.029	519.8
443.439	533
443.85	529
444.26	539.6
444.649	528
445.06	515.4
445.471	512.6
445.881	523.4
446.292	539
446.682	543.6
447.092	513
447.503	555.8
447.914	517.8
448.325	526
448.715	523
449.126	520.4
449.537	522.6
449.948	519.4
450.338	532.8
450.75	528.2
451.161	527.4
451.572	532.4
451.984	522.8
452.374	512.4
452.786	526.4
453.197	532.6
453.609	529.8
453.999	518.2
454.411	519.2
454.823	536
455.235	524
455.647	521.8
456.037	524.4
456.449	506.4
456.862	523.8
457.274	529.2
457.665	510.2
458.077	530.2
458.489	546.4
458.902	519
459.293	521.8
459.705	518.2
460.118	516.4
460.53	521.6
460.921	522.8
461.334	524
461.747	525.6
462.16	541
462.551	539.6
462.964	525.8
463.377	509.2
463.79	523.6
464.182	528.2
464.595	519.8
465.008	533
465.421	533.2
465.813	517.2
466.226	520
466.64	517.6
467.053	553
467.445	530.2
467.859	533.8
468.272	520.6
468.686	526
469.078	515.6
469.492	508.6
469.906	514
470.298	529.6
470.712	511
471.126	535.4
471.54	504.6
471.933	514.2
472.347	510.2
472.761	512.6
473.175	515.8
473.568	511
473.982	508.2
474.397	518.8
474.79	529.6
475.204	526.4
475.619	518.4
476.033	517.6
476.426	514
476.841	510.2
477.256	533.4
477.649	517
478.064	512
478.479	516.8
478.872	513
479.287	508.2
479.702	508.8
480.118	513.2
480.511	523
480.927	514.8
481.342	512.2
481.736	517.2
482.151	515.4
482.566	530
482.96	521.2
483.376	532
483.792	516
484.186	529
484.602	514.8
485.017	518
485.412	517.6
485.827	520.2
486.243	519
486.638	532.4
487.054	525.6
487.47	533.6
487.865	517.2
488.281	520.8
488.697	507.6
489.092	519
489.508	512.4
489.925	524.2
490.32	507
490.736	526
491.153	524.2
491.548	526.2
491.964	532.2
492.381	513.2
492.776	526.6
493.193	517
493.61	518.8
494.006	517.2
494.422	518.6
494.84	512.4
495.235	523.8
495.652	520.6
496.069	516.2
496.465	515.8
496.883	516.6
497.3	538.6
497.696	514.6
498.113	522.8
498.509	505.4
498.927	513.6
499.344	506.6
499.741	511.8
500.158	526.6
500.576	526.2
500.973	518
501.39	514.6
501.787	522.2
502.205	529.8
502.623	515.4
503.02	508.8
503.438	513.8
503.856	510.4
504.253	518
504.671	517.6
505.068	511.6
505.486	519.4
505.905	534.6
506.302	518.6
506.72	523
507.118	519.2
507.536	517.8
507.955	514.2
508.352	513.4
508.771	520.2
509.169	532.6
509.587	514.2
510.006	514.8
510.404	515.4
510.823	515.2
511.221	520.4
511.64	506.6
512.038	526.8
512.457	513.4
512.877	514.8
513.275	517.2
513.694	510.8
514.092	511.8
514.512	515.2
514.91	527.4
515.33	521.2
515.749	517.6
516.148	512.2
516.568	522
516.966	521.2
517.386	510
517.785	517.8
518.205	515
518.603	511.8
519.024	509.8
519.444	518.4
519.843	517.2
520.263	525.2
520.662	519.4
521.082	511.6
521.481	527
521.902	521
522.301	523.2
522.722	517.2
523.121	518.8
523.542	507.8
523.963	514.4
524.362	523
524.783	523.4
525.183	513.8
525.604	512.2
526.003	516.2
526.425	506.8
526.824	520
527.246	527.6
527.646	520.4
528.067	524.4
528.467	525.6
528.888	520
529.289	517.6
529.71	515.2
530.11	518.4
530.532	516.8
530.932	513.8
531.354	508.6
531.755	541.4
532.176	528.4
532.577	515
532.999	517
533.4	512.2
533.822	517.4
534.223	517.6
534.645	513.4
535.046	505.4
535.468	514.6
535.869	526.6
536.292	512.4
536.693	547
537.115	520
537.516	509.4
537.939	510.8
538.34	534.2
538.742	516.4
539.165	513.6
539.566	518.2
539.989	515.8
540.391	514.6
540.814	514.8
541.216	515.2
541.639	515.2
542.041	524.6
542.464	510.2
542.866	511.8
543.268	511.6
543.691	518.8
544.093	513.6
544.517	526.8
544.919	502.8
545.343	530.6
545.745	503.2
546.147	514
546.571	510.4
546.974	504.6
547.398	518
547.8	523.6
548.224	507.8
548.627	508.2
549.03	517.4
549.454	505.6
549.857	506.2
550.281	513.8
550.684	509.2
551.087	518.6
551.512	520.4
551.915	507.4
552.34	510.6
552.743	505
553.146	521
553.571	512.8
553.975	529.2
554.399	515
554.803	553
555.207	512.4
555.632	502.4
556.036	525.6
556.461	502.8
556.865	503.8
557.268	512.4
557.694	507.4
558.098	506.2
558.502	518
558.927	513
559.332	512.2
559.736	516.8
560.162	518.8
560.566	504.2
560.992	519
561.396	516.2
561.801	511.4
562.227	508
562.631	512.6
563.036	518.8
563.462	515.2
563.867	511.8
564.272	495
564.698	515.4
565.103	502.8
565.508	529
565.935	504.8
566.34	505.4
566.745	528.4
567.172	506.6
567.577	529.4
567.982	518.2
568.409	518.8
568.815	510.6
569.22	510.2
569.626	523.6
570.053	501.2
570.459	515.6
570.865	515
571.292	516.6
571.698	515.2
572.104	503.6
572.531	509.2
572.937	523.8
573.343	516
573.75	511.8
574.177	513.8
574.583	512.8
574.99	509.2
575.396	522.8
575.824	512.6
576.231	515.4
576.637	514.6
577.065	533.4
577.472	506.6
577.879	511.6
578.286	524.2
578.714	507
579.121	511
579.528	509.4
579.935	515.2
580.364	506.2
580.771	507.2
581.178	502.8
581.585	518.2
582.014	517.4
582.421	510
582.829	508.4
583.236	521.8
583.644	506.4
584.073	513.2
584.481	514.6
584.889	510.6
585.296	517.4
585.726	508.4
586.134	508
586.542	502.6
586.95	518.4
587.358	504.4
587.787	515
588.196	500.2
588.604	510.6
589.012	504
589.421	503.8
589.851	510.2
590.259	516
590.668	513
591.076	542.6
591.485	505.4
591.894	506.6
592.324	526.4
592.733	516.8
593.142	503.4
593.551	509.2
593.96	540
594.369	506.2
594.8	506.2
595.209	510.4
595.618	496.6
596.028	511.6
596.437	508
596.847	513.2
597.256	507.4
597.687	517.8
598.097	508.4
598.507	506.6
598.917	519.8
599.327	523.6
599.736	512.4
600.146	517.4
600.556	511.8
600.988	519.4
601.398	515.2
601.808	522.2
602.219	504.8
602.629	516.2
603.039	510.4
603.45	527.6
603.86	516.8
604.271	526.2
604.703	519.4
605.114	514.6
605.525	521.8
605.935	520.8
606.346	533
606.757	511.4
607.168	512.8
607.579	512.6
607.99	524
608.402	518.4
608.813	519.6
609.224	519.2
609.636	506.6
610.047	515.4
610.48	519.6
610.892	515.8
611.303	520.6
611.715	514
612.127	506
612.539	509.4
612.95	520
613.362	505.4
613.774	506
614.186	507.2
614.599	512.6
615.011	518.2
615.423	522
615.835	518.4
616.248	503.4
616.66	524.2
617.073	506.8
617.485	517.6
617.898	523.4
618.311	512.4
618.723	515
619.136	537.8
619.549	524.2
619.962	539
620.375	517.8
620.788	513.8
621.201	516.4
621.614	523
622.028	515.8
622.441	519
622.854	530.8
623.268	505.8
623.681	521.2
624.095	516.2
624.509	520.6
624.922	525.6
625.336	512.8
625.728	526.2
626.142	527.8
626.556	534.8
626.97	521.2
627.384	515.2
627.799	519.8
628.213	530.6
628.627	519.4
629.041	517.8
629.456	515.4
629.87	513.2
630.285	527.2
630.699	520.8
631.093	523.8
631.507	523.2
631.922	520.6
632.337	528.6
632.752	508.8
633.167	519.2
633.582	513.8
633.997	513.6
634.412	512.8
634.806	518.4
635.221	515.4
635.637	523.8
636.052	506.2
636.468	518
636.883	527.8
637.299	518.2
637.715	502.6
638.109	514.6
638.525	504.6
638.941	525.6
639.357	511.8
639.773	521.2
640.189	511.2
640.584	508.6
641	519.6
641.416	503.2
641.832	511.8
642.249	514.4
642.665	516.2
643.06	513.4
643.477	521
643.894	504.2
644.31	508.4
644.727	513.2
645.123	510.6
645.54	504.8
645.957	518.8
646.374	526
646.77	507
647.187	530
647.604	514
648.021	502.2
648.439	508.6
648.835	509.4
649.252	519.6
649.67	513
650.088	513.6
650.484	509.8
650.902	515.4
651.32	511.8
651.738	508.8
652.134	512.4
652.552	531
652.971	518.2
653.389	515.6
653.786	524.8
654.204	516.2
654.622	503
655.019	506
655.438	510
655.857	513.8
656.275	517
656.673	505.2
657.091	513
657.51	509.4
657.908	517.4
658.327	520.2
658.746	495.2
659.144	513.6
659.563	510.6
659.982	508.8
660.38	503.4
660.8	507.6
661.219	520
661.617	517
662.037	512.4
662.457	518.4
662.855	492.6
663.275	529.2
663.695	509.6
664.094	504
664.514	500.4
664.934	490.6
665.333	507.4
665.753	497.2
666.152	495.6
666.572	494.6
666.993	522.6
667.392	503.2
667.812	505.6
668.212	501
668.632	514.8
669.053	503.8
669.453	512.6
669.874	516.8
670.273	511.2
670.694	501.2
671.116	513.4
671.515	511.4
671.937	502.4
672.337	509.2
672.758	500.8
673.158	517.8
673.58	505.6
673.98	508.6
674.402	517.6
674.824	509
675.224	499
675.646	502.4
676.047	502.8
676.469	509.6
676.869	512
677.292	503.8
677.693	499.6
678.115	502.4
678.516	510.8
678.939	511.2
679.34	500.4
679.762	519.4
680.164	505.6
680.586	502.2
680.988	503.4
681.411	525
681.812	504.6
682.236	501.8
682.637	496.4
683.061	501.6
683.462	513.4
683.864	505.8
684.288	507.8
684.69	504.6
685.114	514.6
685.516	510.8
685.94	506
686.342	512.6
686.766	504.4
687.168	509.2
687.571	515.2
687.995	496.6
688.398	497.4
688.822	504.4
689.225	524.4
689.628	524.6
690.052	509.2
690.456	512.8
690.88	506
691.284	491.2
691.687	513.2
692.112	502
692.515	493.6
692.919	508.4
693.344	510
693.747	503
694.173	503.8
694.577	514.4
694.98	506.8
695.406	503.6
695.81	508.4
696.214	506.6
696.64	507
697.044	507
697.448	516.8
697.874	506.2
698.279	511.2
698.684	495.6
699.11	505.4
699.514	495.2
699.919	510.6
700.324	498.8
700.75	502.6
701.156	506.4
701.561	512.4
701.987	508.2
702.393	513.6
702.798	514.2
703.203	511.4
703.63	506
704.036	499
704.442	508
704.847	502.6
705.274	507.6
705.68	504.8
706.086	517.4
706.492	499
706.92	505
707.326	515.8
707.732	495.6
708.139	500.8
708.545	494.8
708.973	511.2
709.38	505
709.786	492.6
710.193	518.6
710.6	509.6
711.028	499
711.435	507.8
711.842	503.2
712.249	501.6
712.656	507.2
713.064	509.8
713.492	502
713.9	502.4
714.307	510.6
714.715	504
715.123	502
715.53	507.2
715.938	509.8
716.367	508.2
716.775	506.4
717.184	488.4
717.592	499.4
718	512.4
718.408	540.6
718.816	532.8
719.225	512.6
719.633	505.6
720.042	500.2
720.472	501.8
720.881	517.2
721.29	506
721.699	493.2
722.108	509.2
722.517	505.8
722.926	492.8
723.335	511.4
723.744	498.4
724.154	510.8
724.563	505.2
724.973	515.6
725.382	508.8
725.792	503
726.202	496.6
726.612	515.6
727.022	506.8
727.432	498.6
779.813	500.8
780.223	537.4
780.634	500.8
781.044	494.2
781.454	500.4
781.865	509.6
782.276	498.2
782.686	511.2
783.097	503.4
783.508	499
783.919	499.6
784.33	516
784.741	520
785.152	494.2
785.563	497.4
785.974	488.2
786.386	505.4
786.776	493
787.188	499.8
787.599	487.2
788.011	507.2
788.423	505.4
788.835	499
789.247	503
789.659	490.6
790.071	494
790.483	531
790.874	496.2
791.286	501
791.699	492.4
792.111	497.6
792.524	511.2
792.937	502.2
793.349	498
793.741	495.4
794.154	501.2
794.567	510.8
794.98	492.2
795.393	493.8
795.785	506.4
796.198	501.6
796.612	501.4
797.026	491.6
797.439	483.8
797.831	498
798.245	494.4
798.659	498.8
799.073	497
799.487	491.8
799.88	496
800.294	491.4
800.708	504.2
801.123	511.8
801.516	516.6
801.93	491
802.345	493.4
802.76	498.6
803.153	513.6
803.568	510
803.983	510.6
804.377	504.2
804.792	495.4
805.207	496
805.601	499.8
806.016	528.6
806.432	503.4
806.826	523.6
807.242	511.2
807.658	503.2
808.052	497
808.468	493.8
808.884	495.6
809.279	501.4
809.695	510.6
810.111	513.2
810.506	501.6
810.922	516.8
811.339	492.6
811.734	497
812.151	493.4
812.546	486.6
812.963	493.6
813.38	499.2
813.776	496.8
814.193	515.4
814.589	477.2
815.006	496.2
815.402	492.2
815.82	497.8
816.237	498
816.633	502.8
817.051	493.6
817.448	497.8
817.866	494.8
818.262	513.2
818.68	499.8
819.077	492.6
819.495	497.2
819.892	531.2
820.311	489.4
820.708	498.2
821.127	492.2
821.524	512
821.943	506.6
822.34	512.4
822.759	500
823.157	510
823.576	509.2
823.974	505.2
824.393	589.4
824.791	500.2
825.189	495.4
825.609	497.4
826.007	504.2
826.427	493
826.826	500.4
827.246	504.4
827.644	491.6
828.043	510.6
828.463	502.4
828.862	500.6
829.261	509.2
829.682	490.8
830.081	510.4
830.502	495.6
830.901	504.2
831.301	497.4
831.722	489.8
832.121	498.8
832.521	486.4
832.943	505.6
833.342	497.8
833.742	495.8
834.164	500.2
834.564	493
834.965	498
835.386	496.4
835.787	497.6
836.188	497.6
836.588	499
837.01	498.8
837.411	496.4
837.812	499.8
838.213	503.6
838.636	498.8
839.037	553.4
839.438	505.8
839.84	498.8
840.263	496.2
840.664	496.2
841.066	501.8
841.468	504.4
841.891	502.8
842.293	508.2
842.695	503
843.098	506.8
843.5	497.8
843.902	504.6
844.326	506.6
844.729	501.2
845.131	499.6
845.534	507.4
845.937	503
846.34	523.2
846.764	495.2
847.167	505.2
847.571	490.4
847.974	505.4
848.377	493.6
848.781	542.2
849.184	510.4
849.588	500.4
849.992	496.2
850.396	497.6
850.821	511.4
851.225	504.6
851.63	498.6
852.034	510.4
852.438	498
852.843	524.8
853.247	488.6
853.652	494
854.057	515
854.462	501.4
854.867	504
855.272	526.6
855.677	496.8
856.082	497.2
856.487	492.4
856.893	510.8
857.298	503
857.704	500
858.11	503.4
858.516	505.8
858.922	504.2
859.328	500
859.734	500.2
860.14	498.8
860.525	494.8
860.931	497.8
861.338	501.2
861.745	508.6
862.151	503
862.558	495.2
862.965	494.2
863.372	492.2
863.779	499
864.186	512
864.572	499.6
864.98	518.8
865.387	520.4
865.795	490.4
866.203	506.4
866.61	497.6
867.018	506.8
867.405	491.8
867.813	503.2
868.221	506.2
868.63	499
869.038	506.2
869.425	528.8
869.834	505.8
870.243	493.2
870.652	494
871.039	490.8
871.448	493
871.857	498.4
872.266	505.2
872.654	496.4
873.064	505.6
873.473	504.2
873.883	502.4
874.271	492
874.681	509.8
875.091	492
875.48	499.6
875.89	507.2
876.3	495
876.689	488.8
877.1	492.6
877.51	493.4
877.9	508.2
878.31	492.2
878.721	517.8
879.111	497.2
879.522	495.4
879.933	493
880.323	491.6
880.734	484.2
881.125	499.6
881.536	493
881.948	489.4
882.338	494.8
882.75	500.6
883.141	490.2
883.553	490.6
883.944	521.6
884.356	508.2
884.769	499.4
885.16	494.4
885.573	501.4
885.964	489.2
886.377	499.4
886.768	492.2
887.181	495.8
887.573	488
887.987	500.8
888.378	505
888.792	504.4
889.184	538.8
889.598	493
889.99	499.8
890.383	495.4
890.797	489
891.19	503.2
891.604	491.8
891.997	491.4
892.411	484.2
892.805	493.6
893.198	493.4
893.613	487.6
894.006	491.6
894.421	485.6
894.815	496
895.209	490.8
895.624	533.4
896.018	514.8
896.412	497
896.828	491.2
897.222	501.4
897.617	497.4
898.033	512.8
898.427	505.2
898.822	501.4
899.239	490.2
899.634	492.4
900.029	510.4
900.424	491.2
900.841	484.4
901.236	499.8
901.632	495.8
902.027	543.2
902.445	502.4
902.841	499.4
903.237	499.8
903.633	499.4
904.05	502
904.447	493
904.843	498
905.24	490.2
905.636	488.2
906.033	495.6
906.451	491.4
906.848	479.4
907.246	489.6
907.643	492.6
908.04	492.8
908.438	505
908.835	496
909.254	494.2
909.652	497.6
910.05	486.2
910.448	489
910.846	496.8
911.244	489
911.643	499.8
912.041	491.4
912.44	502.6
912.839	485.4
913.237	500.6
913.636	493.8
914.035	492.8
914.434	493
914.834	502
915.233	505
915.633	493.4
916.032	495.4
916.432	490
916.832	501.2
917.232	492
917.632	493.8
918.032	504.2
918.432	500
918.833	491.6
919.233	491.2
919.634	487.4
920.035	500.6
920.436	485.6
920.837	495.2
921.238	493
921.639	492.4
922.019	492.6
922.42	499
922.822	504.2
923.224	496.2
923.625	492.8
924.027	489
924.429	508.6
924.81	498.4
925.212	505.4
925.615	495.2
926.017	502
926.42	502.4
926.801	502.6
927.204	500.4
927.607	495.4
928.01	503
928.413	497.4
928.795	489.4
929.199	497.2
929.602	495.2
930.006	496.8
930.388	494
930.792	490
931.196	503.2
931.579	529
931.983	490.8
932.388	532.8
932.771	487.4
933.176	488
933.58	501.2
933.964	506.6
934.369	490.2
934.774	501
935.158	492.8
935.563	496
935.947	491.8
936.353	498.6
936.759	494.2
937.143	498
937.549	499
937.934	501.8
938.34	508.2
938.746	487.2
939.131	491.6
939.538	493.2
939.923	498.6
940.33	491.4
940.716	498.6
941.123	504
941.508	496.2
941.916	506
942.302	496.8
942.709	492
943.096	488.4
943.503	502.4
943.89	493.2
944.298	495.4
944.685	518.8
945.072	493.4
945.48	509.4
945.867	494
946.276	493.8
946.663	511.8
947.051	510.2
947.46	505
947.848	495
948.257	493.4
948.645	496.2
949.033	493.6
949.443	488.8
949.831	529
950.22	489.8
950.63	498.4
951.018	525.2
951.407	500
951.796	496.6
952.207	498.4
952.596	502.4
952.985	488.2
953.375	538.8
953.786	499.4
954.176	493.4
954.566	498
954.956	492
955.367	491.6
955.758	506
956.148	486.4
956.539	504
956.929	492.6
957.341	494.6
957.732	493.6
958.123	503.2
958.515	486.4
958.906	495.4
959.297	494.2
959.689	501
960.102	493.6
960.494	498.6
960.886	497.2
961.278	494.2
961.67	513.4
962.062	530
962.455	491.6
962.847	483.8
963.24	490.6
963.633	496.8
964.026	488.6
964.419	495
964.812	492.8
965.206	492
965.599	495.2
965.993	491
966.386	493.6
966.78	501.8
967.174	497.2
967.569	490.4
967.963	484.6
968.357	493
968.752	488.6
969.146	490.2
969.541	481.2
969.936	490
970.331	495.4
970.705	489
971.1	491.4
971.496	498.2
971.892	487
972.287	489.2
972.683	489.2
973.079	491.2
973.454	500.8
973.85	490.8
974.247	495.6
974.643	511.6
975.04	490.6
975.415	494
975.812	486.6
976.209	494.2
976.607	484
976.982	503
977.38	500.2
977.778	490.2
978.175	495
978.552	494
978.95	491.8
979.348	500.4
979.725	528.2
980.123	486
980.522	494.4
980.899	488.6
981.298	483.8
981.697	491.2
982.075	496.4
982.474	488.2
982.852	492.6
983.251	489
983.651	488.4
984.029	495
984.429	489.6
984.808	486
985.208	485.2
985.609	487.8
985.987	484.4
986.388	485.4
986.768	492.8
987.168	493.4
987.548	496.8
987.949	495.4
988.329	503.2
988.731	483.4
989.111	496
989.491	485
989.893	493.6
990.273	500.4
990.676	488.2
991.057	483.2
991.459	486
991.84	492.2
992.221	484.4
992.624	502.6
993.006	490.4
993.388	498.6
993.791	500.2
994.173	498
994.576	517.6
994.959	485.4
995.341	482.4
995.724	488.8
996.128	489.2
996.511	492.8
996.894	491.4
997.298	481.8
997.681	496.2
998.065	490
998.448	483.6
998.854	494.8
999.237	483.8
999.621	495.2
1000.01	498.2
1000.39	489.2
1000.8	480.2
1001.18	486.2
1001.56	491.4
1001.95	496
1002.33	495
1002.72	489
1003.13	493
1003.51	486.4
1003.9	484.4
1004.28	503
1004.67	489.4
1005.06	488.6
1005.44	519
1005.83	480.8
1006.21	497.2
1006.6	488.8
1006.99	500.4
1007.37	502.4
1007.76	491.8
1060.12	487.6
1060.51	486.2
1060.89	503.4
1061.28	507.8
1061.67	503
1062.06	492
1062.45	491.4
1062.83	484
1063.22	500.4
1063.61	515.2
1064	505.8
1064.39	492.2
1064.78	489.2
1065.14	497
1065.53	492
1065.92	492
1066.31	488.6
1066.7	501.2
1067.09	506.4
1067.46	497
1067.85	492
1068.24	486.4
1068.63	499
1069.02	482.2
1069.39	493.4
1069.78	494.8
1070.17	496.6
1070.57	483.4
1070.93	483.6
1071.33	488.4
1071.72	492.8
1072.11	490.2
1072.48	488.4
1072.87	490.4
1073.26	494.4
1073.64	492
1074.03	490
1074.4	491.6
1074.79	490.8
1075.19	495.6
1075.56	493
1075.95	500.8
1076.34	493.6
1076.72	484.6
1077.11	493
1077.48	505
1077.88	493.6
1078.25	490
1078.64	497.6
1079.02	493.2
1079.41	500.2
1079.78	494
1080.18	484.8
1080.55	542.6
1080.95	491.2
1081.32	491
1081.72	493.4
1082.09	500.6
1082.49	484.2
1082.86	489.2
1083.24	480.6
1083.63	482.4
1084.01	491
1084.38	492.8
1084.78	490
1085.16	493
1085.55	504.2
1085.93	500.6
1086.31	488.8
1086.7	514.4
1087.08	495.6
1087.46	484.8
1087.83	487.8
1088.23	492.4
1088.61	482.8
1088.99	496.2
1089.36	490.6
1089.76	493.6
1090.14	490.6
1090.52	486.4
1090.9	484.6
1091.27	504.8
1091.67	508
1092.05	493
1092.43	487.2
1092.81	496.6
1093.19	499.2
1093.57	485.2
1093.95	488
1094.35	497.8
1094.73	499.4
1095.11	493.8
1095.49	489.8
1095.87	493
1096.25	500.4
1096.63	502.4
1097.01	488.6
1097.39	496.4
1097.77	493.4
1098.15	492
1098.53	490.6
1098.91	493.6
1099.29	489
1099.68	505.8
1100.06	500.4
1100.44	496
1100.82	496
1101.18	495.2
1101.56	487.8
1101.95	485.6
1102.33	489.4
1102.71	494.4
1103.1	480.2
1103.48	483.6
1103.86	491.4
1104.22	502.6
1104.61	495.2
1104.99	486
1105.38	483.4
1105.76	493.2
1106.12	486.4
1106.51	519.4
1106.89	490.8
1107.26	487.8
1107.64	502
1108.03	488.4
1108.41	496.2
1108.78	490.6
1109.16	489.8
1109.55	495.6
1109.91	483.2
1110.3	476.6
1110.69	500.2
1111.05	482.4
1111.44	493.4
1111.8	490.2
1112.19	493.6
1112.58	495.2
1112.94	486.2
1113.33	486.6
1113.7	480.8
1114.09	487.8
1114.45	479.2
1114.84	486.8
1115.21	489.8
1115.6	484.2
1115.96	490.4
1116.35	495.2
1116.72	484.4
1117.11	499
1117.48	484.8
1117.85	486.6
1118.24	494
1118.6	482
1118.99	477.6
1119.36	481.2
1119.73	484.6
1120.12	487
1120.49	479.8
1120.86	496
1121.25	484.4
1121.62	484.4
1121.99	477.8
1122.38	496.6
1122.76	497.8
1123.13	483
1123.5	491.8
1123.89	495.4
1124.26	481
1124.63	487.6
1125	480.4
1125.4	474.8
1125.77	485.2
1126.14	475.6
1126.51	486.6
1126.88	494.6
1127.26	487.4
1127.63	479.6
1128.02	481.4
1128.4	480.6
1128.77	483.6
1129.14	481.8
1129.52	488.2
1129.89	491.2
1130.26	484.8
1130.64	480.4
1131.01	484.4
