#lambda/nm	C1
208.295	474.2
208.67	436.4
209.045	397
209.419	407.8
209.794	547.4
210.169	519.8
210.544	627.6
210.919	539.4
211.295	527.2
211.67	540
212.045	536.4
212.421	538.4
212.796	561.6
213.172	527
213.547	525.4
213.923	526.4
214.299	533.4
214.675	548.2
215.051	541.2
215.427	550.2
215.803	554.2
216.179	534.8
216.555	536.4
216.932	543.8
217.308	539
217.684	536.4
218.061	544.6
218.438	539.2
218.814	529.6
219.191	547
219.568	534.4
219.945	526.6
220.322	542.2
220.699	539.8
221.076	540.8
221.453	536.8
221.83	525.4
222.208	536.4
222.585	531.8
222.962	538.6
223.34	534.4
223.717	532
224.095	532.6
224.473	538.2
224.851	532.4
225.229	529.2
225.607	554.8
225.985	534.2
226.363	534.8
226.741	541.4
227.119	539
227.497	544.4
227.876	525
228.254	531
228.633	540.2
229.011	542.6
229.39	542.2
229.769	544
230.148	542.4
230.527	553.4
230.905	533.6
231.284	550.4
231.664	527
232.043	547.2
232.422	540
232.801	528.2
233.181	540.2
233.56	530.8
233.94	531.8
234.319	527.2
234.699	530.4
235.079	565
235.458	564.8
235.838	549.2
236.218	526.4
236.598	523.2
236.978	526.6
237.358	530.2
237.738	526.2
238.119	541.4
238.499	526.4
238.88	527
239.26	548.4
239.641	525.8
240.021	527.4
240.402	531.2
240.783	524.8
241.163	526.8
241.544	533.6
241.925	531.6
242.306	541.6
242.687	526
243.069	536
243.45	538.4
243.831	526.6
244.212	527.8
244.594	565.2
244.975	535.8
245.357	528.6
245.739	529.6
246.12	534.2
246.502	545.8
246.884	534.6
247.266	536
247.648	536.2
248.03	552.6
248.412	538.2
248.794	536.6
249.176	536
249.559	548.2
249.941	524.4
250.323	531.6
250.706	532.4
251.089	532.6
251.471	531.6
251.854	533
252.237	537.6
252.62	539.6
253.002	532.8
253.385	531.8
253.769	546.2
254.152	532.8
254.535	534.8
254.918	521
255.301	534.8
255.685	532
256.068	520.2
256.452	549.6
256.835	537.6
257.219	539.4
257.603	548.6
257.986	529
258.37	543.8
258.754	520.2
259.138	530.6
259.522	536.8
259.906	535.6
260.29	542.6
260.675	535.8
261.059	544.6
261.443	531
261.828	535.6
262.212	539.4
262.597	527.4
262.981	531
263.366	541
263.751	536.4
264.136	529
264.521	524
264.906	533.6
265.291	543.8
265.676	533.2
266.061	536.6
266.446	555.2
266.831	532.4
267.217	548
267.602	537.4
267.987	535.6
268.373	535.6
268.759	539
269.144	534.8
269.53	535.2
269.916	532.6
270.302	528
270.688	536.8
271.074	534.6
271.46	541.8
271.846	564.6
272.232	529.6
272.618	528
273.004	534.8
273.391	540.8
273.777	540.2
274.164	540.6
274.55	544
274.937	542
275.324	534
275.71	539.6
276.097	545
276.484	531.2
276.871	546.2
277.258	543.4
277.645	527.4
278.032	530.8
278.419	534.2
278.807	539
279.194	526.2
279.581	532.8
279.969	539.8
280.356	539.6
280.744	533.2
281.131	550.6
281.519	545.8
281.907	526.8
282.295	532.6
282.682	547.4
283.07	536
283.458	540.6
283.846	537.8
284.235	543.6
284.623	542.8
285.011	532.6
285.399	530.6
285.788	532
286.176	525.8
286.565	540.8
286.953	531.6
287.342	527.8
287.731	526.2
288.119	521.2
288.508	527
288.897	534.2
289.286	525.8
289.675	535.4
290.064	543.8
290.453	531.4
290.821	533.8
291.21	541.4
291.599	538
291.989	532.6
292.378	537.6
292.768	547.4
293.157	534
293.547	539.8
293.936	539.8
294.326	534.6
294.716	538.2
295.106	536
295.496	548
295.886	542.2
296.276	538.2
296.666	531.2
297.056	529.2
297.446	523.6
297.836	542.8
298.227	532
298.617	541.4
299.008	542.8
299.398	531.8
299.789	532.6
300.179	535
300.57	542.2
300.961	533.6
301.352	539.6
301.742	534.8
302.133	534.2
302.524	531.8
302.915	533.8
303.307	527.8
303.698	543
304.089	537.2
304.48	533
304.872	535.2
305.263	531.2
305.655	529
306.046	528
306.438	542.4
306.829	528.6
307.221	543.6
307.613	543.8
308.005	546.4
308.397	546.4
308.789	553.8
309.181	555.4
309.573	546.6
309.965	545.2
310.357	533.4
310.749	552.6
311.142	524.2
311.534	532.2
311.926	538.4
312.319	532
312.711	532.6
313.104	542.8
313.497	536.6
313.889	563.6
314.282	550.6
314.675	553
315.068	540.6
315.461	539
315.854	565.4
316.247	544.6
316.64	536.4
317.033	532.4
317.405	541.6
317.798	530.6
318.192	536.6
318.585	532.6
318.979	543
319.372	529.6
319.766	535.4
320.16	542.6
320.553	550.2
320.947	549.6
321.341	534.8
321.735	536
322.129	523.2
322.523	561.4
322.917	531.2
323.311	550.6
323.705	538.8
324.099	537.4
324.494	544.4
324.888	535.4
325.282	524.8
325.677	547
326.071	544.4
326.466	545.6
326.861	531.2
327.255	537.8
327.65	541
328.045	551.4
328.44	534.6
328.835	537.4
329.23	537.4
329.625	548.2
330.02	537
330.415	551.6
330.81	534.8
331.206	534.2
331.601	532.2
331.996	536.6
332.37	543.4
332.766	530.4
333.161	557.6
333.557	529.6
333.953	532
334.348	761.8
334.744	535.6
335.14	533.4
335.536	530
335.932	545.4
336.328	535.4
336.724	540.2
337.12	538.8
337.516	532.2
337.913	534.6
338.309	536
338.705	537.8
339.102	548.6
339.498	532.8
339.895	548.2
340.291	528
340.688	536.6
341.085	533
341.481	535.6
341.878	534.6
342.275	550.2
342.672	525.2
343.069	531.6
343.466	523.2
343.842	539.6
344.239	525.8
344.636	529.8
345.033	526.4
345.431	523.8
345.828	532.8
346.225	525.4
346.623	569
347.02	536
347.418	541
347.816	543.4
348.213	522.6
348.611	531
349.009	526.2
349.407	548.4
349.805	513.8
350.203	516.2
350.601	540.4
350.999	520.8
351.397	573.4
351.795	532.6
352.193	539.4
352.57	537
352.969	534.6
353.367	522.8
353.766	526.4
354.164	526.2
354.563	536.2
354.961	527.2
355.36	530.6
355.759	533.4
356.158	518
356.557	527.6
356.956	522.2
357.355	528
357.754	534.8
358.153	528
358.552	544
358.951	527.2
359.35	550
359.75	524.8
360.149	524.6
360.527	528.2
360.926	531.6
361.326	536
361.726	524.2
362.125	534
362.525	543.2
362.925	529.6
363.325	527.4
363.724	526.8
364.124	523.4
364.524	518.6
364.924	526.2
365.324	529.2
365.725	519.6
366.125	536
366.525	532
366.904	519.2
367.304	510.6
367.705	544
368.105	537.8
368.506	530.4
368.906	531.6
369.307	532.2
369.708	539.4
370.108	511.4
370.509	529.8
370.91	525.2
371.311	533.6
371.712	526.4
372.113	531
372.514	524.2
372.894	533.8
373.295	525.2
373.696	526.2
374.097	536
374.499	552
374.9	530.6
375.301	528.6
375.703	529.4
376.105	518.8
376.506	528
376.908	531.4
377.309	537
377.711	523.2
378.113	522.8
378.493	529.6
378.895	520.8
379.297	536
379.699	517.4
380.102	528.8
380.504	539.2
380.906	525.6
381.308	541.4
381.71	530.4
382.113	534.4
382.515	526.2
382.918	530.6
383.299	521.4
383.701	531.8
384.104	528.8
384.507	516.6
384.909	525.4
385.312	512.4
385.715	517.4
386.118	521.6
386.521	515.4
386.924	528.8
387.327	522.2
387.709	513.2
388.112	512.6
388.515	526.8
388.918	519.4
389.322	528.4
389.725	516.6
390.129	542
390.532	530.6
390.936	524.2
391.339	518.2
391.743	528.2
392.125	518.6
392.529	529.6
392.933	535.6
393.337	521
393.74	521.8
394.144	525.8
394.548	528.4
394.953	527.2
395.357	528.4
395.761	522
396.144	526
396.548	520.6
396.952	526.2
397.357	526.2
397.761	513.6
398.166	527.2
398.57	527.8
398.975	520
399.379	520.4
399.763	564.8
400.168	531
400.572	523.2
400.977	522.8
401.382	537.4
401.787	529.2
402.192	537.2
402.597	543.2
403.002	526
403.386	533.6
403.791	535.4
404.197	517.6
404.602	522
405.007	529.8
405.413	527.6
405.818	529
406.224	515.2
406.608	524.8
407.014	518.8
407.42	537.4
407.825	517
408.231	535.8
408.637	528.2
409.043	535.4
409.449	520.2
409.834	525.8
410.24	527.4
410.646	542.2
411.052	534.2
411.458	532.8
411.865	539
412.271	542.2
412.677	529.2
413.062	528.2
413.469	515.4
413.875	550
414.282	543.6
414.689	525.8
415.095	526.8
415.502	525.2
415.888	529.2
416.294	514.4
416.701	561.4
417.108	518.8
417.515	529
417.923	533.4
418.33	544.8
418.715	538.2
419.123	526.8
419.53	523
419.937	529.2
420.345	538.6
420.752	528.4
421.16	541.2
421.546	519.2
421.953	535.6
422.361	519.8
422.769	534.2
423.177	525.2
423.585	545.6
423.992	545.2
424.379	537.4
424.787	534.8
425.195	544
425.603	526
426.011	545.8
426.419	536
426.806	532.6
427.214	525.4
427.623	532.2
428.031	538.4
428.44	529
428.848	528.2
429.235	536.8
429.644	525.8
430.053	527.6
430.461	533.4
430.87	546.2
431.279	530
431.666	530
432.075	528.8
432.484	530.8
432.893	535.2
433.302	535
433.711	559
434.099	532.2
434.508	522.6
434.918	515.2
435.327	530.2
435.737	523.6
436.125	522.2
436.534	520.6
436.944	525.2
437.353	532.8
437.763	535
438.173	518.4
438.561	539.8
438.971	522.6
439.381	520.2
439.791	524.2
440.201	506
440.589	523.8
440.999	530.8
441.409	523.6
441.819	514
442.23	538
442.619	531.8
443.029	520.2
443.439	524.6
443.85	531.8
444.26	543
444.649	529.8
445.06	520.2
445.471	520.6
445.881	525.6
446.292	540.2
446.682	542.2
447.092	507.4
447.503	564.2
447.914	524
448.325	526.2
448.715	518.4
449.126	511.6
449.537	519.6
449.948	527
450.338	519
450.75	526.4
451.161	519.6
451.572	531.2
451.984	520
452.374	509.4
452.786	522.2
453.197	530
453.609	530.4
453.999	515.4
454.411	518.2
454.823	533.4
455.235	527.4
455.647	534.8
456.037	529
456.449	511.8
456.862	523
457.274	519.6
457.665	519.6
458.077	527.6
458.489	547.2
458.902	516.4
459.293	526
459.705	524.6
460.118	511.2
460.53	527.2
460.921	523.8
461.334	516.6
461.747	521.6
462.16	527.8
462.551	537.6
462.964	533.8
463.377	510.4
463.79	524.2
464.182	525.2
464.595	512.8
465.008	519.8
465.421	527
465.813	518.4
466.226	521.2
466.64	517.8
467.053	557.8
467.445	531.6
467.859	534
468.272	524
468.686	530.6
469.078	514.4
469.492	509.6
469.906	523.4
470.298	513
470.712	511.4
471.126	536.8
471.54	509.8
471.933	515.2
472.347	514.2
472.761	518.2
473.175	506.8
473.568	520.2
473.982	513.4
474.397	527.2
474.79	525.6
475.204	521.8
475.619	526.8
476.033	520.6
476.426	519.8
476.841	516.8
477.256	542.2
477.649	518.8
478.064	518.4
478.479	509.6
478.872	508.8
479.287	507.8
479.702	510.2
480.118	514.2
480.511	518.6
480.927	512
481.342	512.4
481.736	515.6
482.151	507
482.566	524.4
482.96	516.8
483.376	524.8
483.792	512.8
484.186	519.6
484.602	507.6
485.017	512.4
485.412	516.2
485.827	523.8
486.243	515.2
486.638	534
487.054	527.6
487.47	533.6
487.865	516.6
488.281	513
488.697	514.6
489.092	515.2
489.508	517.8
489.925	526
490.32	508.4
490.736	528.2
491.153	518.6
491.548	529.4
491.964	520
492.381	514.2
492.776	523.4
493.193	524.6
493.61	528.8
494.006	513.4
494.422	520.6
494.84	512.6
495.235	530.6
495.652	511.6
496.069	515.6
496.465	508.4
496.883	517.6
497.3	537
497.696	518.4
498.113	523.4
498.509	503.6
498.927	504
499.344	511.6
499.741	516
500.158	525.4
500.576	524.8
500.973	521.4
501.39	511.4
501.787	513.4
502.205	518.8
502.623	514.2
503.02	514.4
503.438	514
503.856	514.6
504.253	519
504.671	523
505.068	510
505.486	507.2
505.905	525.2
506.302	517.8
506.72	534.2
507.118	504.8
507.536	512.2
507.955	515.2
508.352	518.8
508.771	524.2
509.169	518.4
509.587	517.6
510.006	516.6
510.404	512.6
510.823	515
511.221	513.6
511.64	517
512.038	532
512.457	518.2
512.877	519
513.275	514.6
513.694	514.4
514.092	508.4
514.512	520.8
514.91	515.6
515.33	517.6
515.749	527.8
516.148	516.6
516.568	519
516.966	516.4
517.386	512.6
517.785	520.4
518.205	512.4
518.603	506.2
519.024	511.4
519.444	516.6
519.843	523.6
520.263	526.2
520.662	520
521.082	520.6
521.481	515
521.902	511
522.301	510.2
522.722	514.6
523.121	518
523.542	515
523.963	517
524.362	513.8
524.783	509.2
525.183	511.6
525.604	506.8
526.003	515
526.425	501
526.824	519.4
527.246	520.2
527.646	514.6
528.067	508.8
528.467	514.4
528.888	511
529.289	515
529.71	518.2
530.11	507.4
530.532	514.6
530.932	515.4
531.354	502.2
531.755	537
532.176	522.2
532.577	518.6
532.999	509.6
533.4	512.4
533.822	530
534.223	522.2
534.645	514.2
535.046	512
535.468	518.6
535.869	522.2
536.292	513.8
536.693	541.4
537.115	523
537.516	509.4
537.939	507
538.34	534
538.742	524.2
539.165	514.2
539.566	519.2
539.989	506.2
540.391	504.4
540.814	507.6
541.216	520
541.639	508.6
542.041	515.6
542.464	508.2
542.866	502.8
543.268	499.4
543.691	515.4
544.093	515
544.517	529
544.919	505.2
545.343	539.2
545.745	504
546.147	523
546.571	510.4
546.974	502.8
547.398	514
547.8	525.6
548.224	513
548.627	507.6
549.03	520.4
549.454	499.2
549.857	500.2
550.281	508.8
550.684	505.4
551.087	524.2
551.512	516
551.915	517.2
552.34	519
552.743	511.8
553.146	513.6
553.571	507.6
553.975	527.6
554.399	513.2
554.803	555
555.207	511
555.632	514.6
556.036	515.2
556.461	512
556.865	515.6
557.268	508.8
557.694	507.6
558.098	516.2
558.502	516
558.927	510.4
559.332	510
559.736	514.2
560.162	518.4
560.566	515
560.992	516
561.396	508.4
561.801	518.4
562.227	518.6
562.631	511.8
563.036	508.6
563.462	516.4
563.867	523.6
564.272	509.4
564.698	518.4
565.103	509.8
565.508	528.2
565.935	516.8
566.34	516.2
566.745	526.4
567.172	509.2
567.577	533.4
567.982	518.6
568.409	518
568.815	503.8
569.22	520
569.626	515
570.053	499.4
570.459	515.2
570.865	517.6
571.292	518.2
571.698	516
572.104	506
572.531	510.6
572.937	525
573.343	510.2
573.75	515.2
574.177	518.8
574.583	522.6
574.99	511.4
575.396	517
575.824	514.8
576.231	516.2
576.637	509.8
577.065	539.2
577.472	507
577.879	517.6
578.286	529.6
578.714	504.4
579.121	508.4
579.528	511
579.935	514.8
580.364	513.6
580.771	496.2
581.178	498.2
581.585	514.2
582.014	511.6
582.421	510.4
582.829	513.6
583.236	514.8
583.644	512.2
584.073	511
584.481	508.4
584.889	503
585.296	509.4
585.726	505
586.134	510
586.542	507.8
586.95	520.4
587.358	496.2
587.787	514
588.196	499.8
588.604	512.2
589.012	507.2
589.421	505.6
589.851	504.6
590.259	510.4
590.668	513.4
591.076	539.8
591.485	510.8
591.894	506
592.324	521.2
592.733	514.8
593.142	504.2
593.551	512.2
593.96	536.6
594.369	508.2
594.8	509.8
595.209	513.6
595.618	495.8
596.028	507.2
596.437	510.4
596.847	508.6
597.256	518.6
597.687	509.2
598.097	508
598.507	499
598.917	513.8
599.327	518.8
599.736	515.8
600.146	517.4
600.556	509.8
600.988	521.4
601.398	509.2
601.808	515.6
602.219	500.4
602.629	511
603.039	520.6
603.45	529.2
603.86	514.2
604.271	527.2
604.703	508.4
605.114	515.4
605.525	520
605.935	511.4
606.346	525.2
606.757	525.4
607.168	514.6
607.579	507.4
607.99	521.2
608.402	517.2
608.813	516.4
609.224	507.8
609.636	512.4
610.047	509.6
610.48	517.4
610.892	520.8
611.303	523
611.715	510
612.127	512.4
612.539	510.8
612.95	519
613.362	516.6
613.774	509
614.186	516
614.599	511.6
615.011	518.6
615.423	519.8
615.835	515.4
616.248	510
616.66	519
617.073	507.2
617.485	511.4
617.898	525.4
618.311	510.8
618.723	513
619.136	540.6
619.549	527.2
619.962	527.6
620.375	513.6
620.788	516.2
621.201	512.6
621.614	517.4
622.028	507.2
622.441	511.4
622.854	527.2
623.268	507.8
623.681	513.4
624.095	518.4
624.509	518.4
624.922	519
625.336	500.4
625.728	519.6
626.142	520.4
626.556	527.6
626.97	521
627.384	507.2
627.799	509.4
628.213	522.4
628.627	510.8
629.041	514.6
629.456	512.2
629.87	513
630.285	513
630.699	522.8
631.093	502.4
631.507	522.6
631.922	525
632.337	520.4
632.752	507.2
633.167	508.2
633.582	507.2
633.997	510.6
634.412	511.6
634.806	508.6
635.221	510.6
635.637	518.2
636.052	503.6
636.468	514.4
636.883	524.8
637.299	513
637.715	509.8
638.109	506.6
638.525	500.2
638.941	523
639.357	507.2
639.773	525.2
640.189	505.8
640.584	506.4
641	508.2
641.416	494.4
641.832	508.2
642.249	511.6
642.665	509.8
643.06	515.6
643.477	525.2
643.894	503.4
644.31	508.8
644.727	512.4
645.123	509.4
645.54	505.8
645.957	506.8
646.374	519.2
646.77	509
647.187	540
647.604	513.6
648.021	506.4
648.439	508.4
648.835	509.8
649.252	513.8
649.67	511.2
650.088	507.6
650.484	520
650.902	518.4
651.32	511.6
651.738	502.2
652.134	508
652.552	522.8
652.971	511.2
653.389	509.4
653.786	517
654.204	511.6
654.622	500.4
655.019	516.6
655.438	513.6
655.857	502.6
656.275	511.4
656.673	491.6
657.091	510.4
657.51	497.2
657.908	510.2
658.327	518.2
658.746	503.2
659.144	503.8
659.563	507.6
659.982	510.6
660.38	494.6
660.8	508.8
661.219	515.8
661.617	516
662.037	505.4
662.457	513
662.855	501.2
663.275	543.8
663.695	505.8
664.094	507
664.514	507.8
664.934	503
665.333	504
665.753	498.8
666.152	493.2
666.572	497.8
666.993	517.6
667.392	502
667.812	509.2
668.212	505.6
668.632	512.2
669.053	509.4
669.453	508.6
669.874	511
670.273	508.8
670.694	509
671.116	516.6
671.515	517.6
671.937	503.6
672.337	499.4
672.758	505.8
673.158	510.6
673.58	499.8
673.98	509.4
674.402	518.8
674.824	513.4
675.224	507.8
675.646	499.6
676.047	508.2
676.469	505.8
676.869	506.6
677.292	511.6
677.693	498.2
678.115	503
678.516	511.2
678.939	512.4
679.34	503.6
679.762	520.6
680.164	509.4
680.586	491.8
680.988	503.4
681.411	524.4
681.812	503.2
682.236	490
682.637	497
683.061	499.4
683.462	511.6
683.864	503
684.288	508.8
684.69	503.6
685.114	513.6
685.516	504.6
685.94	502.2
686.342	510.4
686.766	504.2
687.168	495.8
687.571	517.6
687.995	510.2
688.398	499
688.822	509
689.225	514.4
689.628	525.6
690.052	505.8
690.456	507.6
690.88	503.8
691.284	497.4
691.687	505.6
692.112	490.2
692.515	502.8
692.919	509.2
693.344	505.2
693.747	499
694.173	513.2
694.577	511.4
694.98	499
695.406	503.6
695.81	498.4
696.214	505.2
696.64	511
697.044	509.4
697.448	518.8
697.874	509.2
698.279	503.4
698.684	494.6
699.11	500.6
699.514	501.2
699.919	494.6
700.324	500.6
700.75	499
701.156	508.6
701.561	512.2
701.987	512.4
702.393	523
702.798	512.6
703.203	502.2
703.63	506.4
704.036	499.8
704.442	499
704.847	493.8
705.274	509.4
705.68	507.8
706.086	506.4
706.492	499.6
706.92	505.6
707.326	504.8
707.732	506.4
708.139	497.8
708.545	495.6
708.973	503.2
709.38	507.4
709.786	497.4
710.193	519.2
710.6	512.8
711.028	495.4
711.435	502
711.842	503.4
712.249	497.8
712.656	500.6
713.064	512.6
713.492	500.8
713.9	506.4
714.307	507.2
714.715	506
715.123	509.2
715.53	506.2
715.938	509
716.367	507.4
716.775	501.8
717.184	490.2
717.592	500
718	512.4
718.408	528
718.816	536.2
719.225	508
719.633	504
720.042	493.2
720.472	491.4
720.881	509.4
721.29	504.4
721.699	483.8
722.108	501.6
722.517	505.6
722.926	499.6
723.335	513.8
723.744	503.6
724.154	503
724.563	500.4
724.973	498
725.382	503.6
725.792	501.8
726.202	500.6
726.612	509
727.022	501.4
727.432	498.2
779.813	499.8
780.223	540
780.634	497.4
781.044	498.8
781.454	502.6
781.865	510.2
782.276	490.8
782.686	508.4
783.097	506.6
783.508	500.8
783.919	506.8
784.33	513.4
784.741	512.8
785.152	506.6
785.563	495.8
785.974	496.8
786.386	506.6
786.776	502.2
787.188	502.2
787.599	493.4
788.011	502.2
788.423	500.4
788.835	493
789.247	490.6
789.659	499.4
790.071	492.8
790.483	539.6
790.874	500
791.286	509
791.699	499.2
792.111	503.6
792.524	505.2
792.937	502
793.349	494.6
793.741	500.4
794.154	492.2
794.567	517.2
794.98	503.8
795.393	498
795.785	506.8
796.198	499.8
796.612	508
797.026	498
797.439	494.6
797.831	502.8
798.245	491.2
798.659	498.2
799.073	497.4
799.487	492.2
799.88	500
800.294	505.2
800.708	510.4
801.123	503.4
801.516	517.8
801.93	491.2
802.345	489.4
802.76	500
803.153	511
803.568	512.4
803.983	503.6
804.377	502.2
804.792	488.2
805.207	491.8
805.601	505
806.016	520.8
806.432	499
806.826	520.6
807.242	514.8
807.658	500.8
808.052	502.4
808.468	499
808.884	500.2
809.279	501.8
809.695	507.2
810.111	520.6
810.506	501.8
810.922	514.8
811.339	502
811.734	503.8
812.151	496
812.546	499
812.963	489.2
813.38	504.2
813.776	506.6
814.193	520
814.589	500.8
815.006	496.6
815.402	496
815.82	494.8
816.237	496.6
816.633	501.8
817.051	497.8
817.448	499.8
817.866	490.6
818.262	523
818.68	493.4
819.077	486.4
819.495	505.8
819.892	531.8
820.311	493
820.708	498.2
821.127	491.8
821.524	512
821.943	507.6
822.34	517.6
822.759	504.2
823.157	501.2
823.576	519.2
823.974	502.2
824.393	557.2
824.791	492.8
825.189	497.2
825.609	496.4
826.007	500.2
826.427	489.6
826.826	497.6
827.246	501.4
827.644	486.4
828.043	505.6
828.463	481.4
828.862	505.6
829.261	504.6
829.682	494
830.081	492.4
830.502	488.4
830.901	506.2
831.301	492.4
831.722	484.4
832.121	500.8
832.521	488.8
832.943	495.8
833.342	496.8
833.742	490
834.164	494.8
834.564	493.8
834.965	491.2
835.386	498.2
835.787	496
836.188	488.8
836.588	503.2
837.01	501.4
837.411	491.4
837.812	506.2
838.213	496.8
838.636	498
839.037	547.4
839.438	495.2
839.84	502.6
840.263	506.4
840.664	495.4
841.066	496.4
841.468	497.6
841.891	495.6
842.293	504.2
842.695	509.2
843.098	498.8
843.5	498.2
843.902	498.2
844.326	504.2
844.729	501.2
845.131	507.2
845.534	499
845.937	503.4
846.34	513
846.764	494.2
847.167	506
847.571	490.8
847.974	504
848.377	496
848.781	537.4
849.184	516.8
849.588	499.2
849.992	493
850.396	497.2
850.821	519
851.225	498.8
851.63	502.6
852.034	509
852.438	504
852.843	563.4
853.247	497.2
853.652	493.6
854.057	513.6
854.462	499.2
854.867	498.6
855.272	520
855.677	494
856.082	489.2
856.487	489.4
856.893	501
857.298	496
857.704	493
858.11	503.2
858.516	504.6
858.922	499
859.328	506.2
859.734	497.8
860.14	505.8
860.525	492.4
860.931	494.6
861.338	496.2
861.745	506
862.151	506.8
862.558	506.2
862.965	500.6
863.372	492
863.779	497
864.186	518.2
864.572	496.4
864.98	511
865.387	523.8
865.795	499.8
866.203	504
866.61	493.6
867.018	503.4
867.405	503.2
867.813	488.8
868.221	495.2
868.63	494
869.038	505.4
869.425	522.8
869.834	501.6
870.243	486.4
870.652	498.6
871.039	494.8
871.448	495.2
871.857	493.4
872.266	500.8
872.654	504.4
873.064	486.4
873.473	502
873.883	488.4
874.271	495.4
874.681	498.8
875.091	483.4
875.48	505.6
875.89	511.6
876.3	494.8
876.689	489
877.1	505
877.51	494.8
877.9	513.2
878.31	488
878.721	520.2
879.111	490.6
879.522	497.6
879.933	494.6
880.323	494.8
880.734	490.8
881.125	491.4
881.536	501.2
881.948	490.6
882.338	494.4
882.75	497
883.141	498.2
883.553	497.8
883.944	520.2
884.356	497.4
884.769	497.4
885.16	495.8
885.573	493
885.964	495.4
886.377	499.2
886.768	489
887.181	494
887.573	495.2
887.987	500.8
888.378	505.2
888.792	502.2
889.184	534.4
889.598	493.6
889.99	501.2
890.383	492.4
890.797	484.8
891.19	496.4
891.604	491.2
891.997	495.8
892.411	492.8
892.805	496
893.198	496.2
893.613	491.4
894.006	493.4
894.421	488.6
894.815	497
895.209	497.8
895.624	529.4
896.018	509.4
896.412	489.8
896.828	497.8
897.222	505.8
897.617	495
898.033	498
898.427	500.4
898.822	491.4
899.239	487.2
899.634	488.8
900.029	513
900.424	491.6
900.841	484.4
901.236	493.8
901.632	499.8
902.027	537.4
902.445	499
902.841	498.4
903.237	492.2
903.633	510.2
904.05	503.4
904.447	496
904.843	502.4
905.24	492
905.636	491.4
906.033	506.2
906.451	503
906.848	490.8
907.246	487.8
907.643	497
908.04	497.6
908.438	501.8
908.835	491.4
909.254	498.4
909.652	496.2
910.05	491.6
910.448	489.8
910.846	492
911.244	494.2
911.643	499.4
912.041	498.6
912.44	510.4
912.839	488
913.237	491.4
913.636	489.2
914.035	503.6
914.434	492.2
914.834	509
915.233	500.4
915.633	483.8
916.032	493.2
916.432	491
916.832	506.6
917.232	498
917.632	489.4
918.032	506.8
918.432	490.4
918.833	485.4
919.233	490.8
919.634	490.6
920.035	497.4
920.436	492.4
920.837	502.6
921.238	489.8
921.639	483
922.019	498
922.42	491.4
922.822	492
923.224	492.6
923.625	488.6
924.027	487.6
924.429	510
924.81	494.6
925.212	495.6
925.615	493.4
926.017	488.4
926.42	500.6
926.801	496.6
927.204	489.4
927.607	498.4
928.01	504.4
928.413	497.4
928.795	482
929.199	484.4
929.602	493.2
930.006	488
930.388	491.8
930.792	498.4
931.196	498.2
931.579	521.6
931.983	489.8
932.388	527.6
932.771	494.2
933.176	484
933.58	491
933.964	497.6
934.369	490
934.774	500.8
935.158	489.8
935.563	493.8
935.947	494.2
936.353	503.2
936.759	496.2
937.143	495.2
937.549	494.8
937.934	501.8
938.34	504
938.746	489
939.131	496
939.538	490.6
939.923	494
940.33	492.4
940.716	492.2
941.123	493.6
941.508	508
941.916	510
942.302	490
942.709	486.6
943.096	485.8
943.503	502.4
943.89	502.6
944.298	492.8
944.685	523.2
945.072	496.4
945.48	506
945.867	486
946.276	490.6
946.663	508.4
947.051	508.4
947.46	505.4
947.848	493.6
948.257	485
948.645	499.4
949.033	494.8
949.443	485.2
949.831	529
950.22	490.2
950.63	503.2
951.018	518.6
951.407	495
951.796	493.6
952.207	502.4
952.596	507.6
952.985	489
953.375	529
953.786	494.8
954.176	493.2
954.566	501.6
954.956	481.8
955.367	498.2
955.758	516.8
956.148	498.8
956.539	505.6
956.929	496.6
957.341	490.4
957.732	494.8
958.123	502.8
958.515	492
958.906	495.2
959.297	492
959.689	488.6
960.102	494
960.494	499.6
960.886	492.4
961.278	491.8
961.67	507.8
962.062	526
962.455	486.6
962.847	491.4
963.24	486
963.633	494
964.026	487.4
964.419	490
964.812	498.6
965.206	493.8
965.599	495.8
965.993	489.2
966.386	497.8
966.78	500.8
967.174	505.6
967.569	497.8
967.963	491.2
968.357	486
968.752	490.2
969.146	487.2
969.541	487
969.936	493.2
970.331	495
970.705	496.8
971.1	483.8
971.496	495.8
971.892	488
972.287	499
972.683	501.6
973.079	492.4
973.454	506.2
973.85	496.6
974.247	502.4
974.643	514
975.04	500.2
975.415	490.2
975.812	484.8
976.209	499.6
976.607	487
976.982	491.2
977.38	506
977.778	487
978.175	497.4
978.552	490.8
978.95	500.4
979.348	495.4
979.725	520.6
980.123	495.2
980.522	493.8
980.899	487.2
981.298	487.8
981.697	494.6
982.075	487.4
982.474	483.8
982.852	490
983.251	497
983.651	488.6
984.029	501.6
984.429	493.4
984.808	484.8
985.208	491.8
985.609	488.2
985.987	483
986.388	489.2
986.768	497.8
987.168	490
987.548	493.4
987.949	498.2
988.329	503.2
988.731	484.6
989.111	494.4
989.491	491.4
989.893	490.4
990.273	502
990.676	485.2
991.057	487.2
991.459	495.2
991.84	485.4
992.221	484.6
992.624	499.8
993.006	494.6
993.388	491.8
993.791	489.2
994.173	498.2
994.576	515.4
994.959	486.4
995.341	488.6
995.724	495
996.128	488.2
996.511	497.6
996.894	495.6
997.298	482
997.681	493.2
998.065	488
998.448	491
998.854	500
999.237	480.4
999.621	500.6
1000.01	500.4
1000.39	492.6
1000.8	488.4
1001.18	495.6
1001.56	493.6
1001.95	499.4
1002.33	485.8
1002.72	496.2
1003.13	495
1003.51	490.8
1003.9	492
1004.28	504.8
1004.67	490.2
1005.06	492.2
1005.44	512.4
1005.83	486.6
1006.21	485.2
1006.6	492.6
1006.99	497
1007.37	494.8
1007.76	486.6
1060.12	482.8
1060.51	488.2
1060.89	496.2
1061.28	500.2
1061.67	500.8
1062.06	499.2
1062.45	493.8
1062.83	478.8
1063.22	496.6
1063.61	532.4
1064	499.4
1064.39	490.6
1064.78	495.4
1065.14	494.2
1065.53	491.4
1065.92	483.6
1066.31	489.8
1066.7	492.2
1067.09	492.4
1067.46	495
1067.85	483.8
1068.24	489.4
1068.63	493.8
1069.02	484.2
1069.39	494
1069.78	493.2
1070.17	485
1070.57	486.6
1070.93	487.8
1071.33	485.6
1071.72	491.8
1072.11	488.4
1072.48	495.8
1072.87	496.8
1073.26	483.8
1073.64	485.4
1074.03	489.4
1074.4	486
1074.79	482.6
1075.19	487.4
1075.56	491.4
1075.95	496
1076.34	491.6
1076.72	486.6
1077.11	495.8
1077.48	500
1077.88	484.4
1078.25	488.8
1078.64	499.4
1079.02	494.2
1079.41	495
1079.78	496
1080.18	476.2
1080.55	540.2
1080.95	484.8
1081.32	493.2
1081.72	493.2
1082.09	496.4
1082.49	481.4
1082.86	492
1083.24	481
1083.63	482
1084.01	491
1084.38	493.6
1084.78	486.8
1085.16	494
1085.55	502.4
1085.93	503.2
1086.31	481.4
1086.7	516.2
1087.08	498.2
1087.46	490.8
1087.83	483.4
1088.23	493.2
1088.61	488.2
1088.99	491.2
1089.36	494.6
1089.76	496.6
1090.14	483.2
1090.52	486.6
1090.9	482.2
1091.27	505.6
1091.67	505.2
1092.05	491
1092.43	490.8
1092.81	497.4
1093.19	499
1093.57	492.8
1093.95	483.2
1094.35	498.2
1094.73	497
1095.11	481.6
1095.49	484.6
1095.87	483
1096.25	497.8
1096.63	496
1097.01	487
1097.39	491.2
1097.77	491.8
1098.15	493.2
1098.53	481
1098.91	483.6
1099.29	492
1099.68	506.2
1100.06	500.2
1100.44	490.4
1100.82	492.8
1101.18	487.6
1101.56	489.6
1101.95	490.2
1102.33	494.4
1102.71	487.8
1103.1	481.2
1103.48	473.4
1103.86	484.6
1104.22	496.2
1104.61	489.8
1104.99	486.2
1105.38	482.2
1105.76	488
1106.12	489.8
1106.51	515
1106.89	500
1107.26	487.2
1107.64	490.6
1108.03	482
1108.41	493.4
1108.78	492.4
1109.16	486.6
1109.55	500.6
1109.91	477.2
1110.3	481.2
1110.69	510
1111.05	484.6
1111.44	497
1111.8	495.6
1112.19	492.2
1112.58	493.2
1112.94	484.2
1113.33	491
1113.7	484.8
1114.09	482.6
1114.45	488
1114.84	488.4
1115.21	490.4
1115.6	487.8
1115.96	492.6
1116.35	487.8
1116.72	490.8
1117.11	498.4
1117.48	486.8
1117.85	494
1118.24	500.4
1118.6	498.4
1118.99	485
1119.36	487.8
1119.73	494.8
1120.12	489
1120.49	477.6
1120.86	500.6
1121.25	493.8
1121.62	487.4
1121.99	490.8
1122.38	490
1122.76	495.8
1123.13	488
1123.5	488.6
1123.89	502.6
1124.26	484.8
1124.63	489
1125	491.4
1125.4	477.8
1125.77	494.4
1126.14	477.2
1126.51	489.8
1126.88	491.4
1127.26	487.4
1127.63	474.6
1128.02	478.8
1128.4	480.6
1128.77	484.2
1129.14	496.2
1129.52	485.6
1129.89	491.4
1130.26	489
1130.64	482.8
1131.01	485.6
