#lambda/nm	C1
208.295	467.2
208.67	437.6
209.045	396.4
209.419	404.8
209.794	542.6
210.169	517.2
210.544	621.8
210.919	539.6
211.295	528.8
211.67	538.2
212.045	534.6
212.421	533.8
212.796	555.4
213.172	525.4
213.547	531.6
213.923	527.2
214.299	525.4
214.675	541
215.051	545.8
215.427	541
215.803	548
216.179	542.4
216.555	533.4
216.932	541.4
217.308	535.6
217.684	537.8
218.061	545.2
218.438	544.8
218.814	532.8
219.191	543.2
219.568	534.8
219.945	532
220.322	537.8
220.699	532.4
221.076	549.4
221.453	543.4
221.83	530.2
222.208	535.2
222.585	532.4
222.962	545.8
223.34	540.8
223.717	535.4
224.095	538.6
224.473	541
224.851	528.2
225.229	529
225.607	546
225.985	528
226.363	533.8
226.741	538.6
227.119	534
227.497	545.2
227.876	523.8
228.254	542.2
228.633	545.2
229.011	539
229.39	540.4
229.769	535.6
230.148	541
230.527	555.4
230.905	536.6
231.284	550.6
231.664	532.8
232.043	547.6
232.422	537.4
232.801	536.8
233.181	542
233.56	528.8
233.94	534.4
234.319	523.6
234.699	526.8
235.079	567
235.458	564.6
235.838	553.8
236.218	530.4
236.598	529
236.978	530.4
237.358	538.2
237.738	533.6
238.119	544.4
238.499	527.2
238.88	534
239.26	552.8
239.641	525.2
240.021	532.8
240.402	542.6
240.783	529.8
241.163	534.8
241.544	534
241.925	537.6
242.306	547.4
242.687	535.8
243.069	531.4
243.45	531.8
243.831	532.8
244.212	533
244.594	558
244.975	546
245.357	538.8
245.739	534
246.12	541.4
246.502	541
246.884	534.2
247.266	529.2
247.648	531
248.03	550.2
248.412	541
248.794	540.2
249.176	526
249.559	541.8
249.941	529.4
250.323	527.2
250.706	532.8
251.089	532.8
251.471	538.2
251.854	528.2
252.237	532
252.62	547.8
253.002	543
253.385	543.2
253.769	548.4
254.152	536.8
254.535	541.4
254.918	530.2
255.301	539.8
255.685	533.8
256.068	526.4
256.452	550.8
256.835	541.6
257.219	540.2
257.603	544.8
257.986	528.6
258.37	545.8
258.754	528.8
259.138	534.8
259.522	542.2
259.906	533.2
260.29	537.4
260.675	530.4
261.059	534.4
261.443	524
261.828	534.8
262.212	542.4
262.597	518.8
262.981	531.2
263.366	543.6
263.751	534.6
264.136	529.4
264.521	533.6
264.906	529.6
265.291	537
265.676	534.2
266.061	538.4
266.446	547.6
266.831	530.2
267.217	552.6
267.602	535.4
267.987	529.8
268.373	537
268.759	539.6
269.144	528
269.53	526.8
269.916	529.6
270.302	529.6
270.688	523.8
271.074	532.2
271.46	539.6
271.846	554
272.232	533.2
272.618	528.6
273.004	522.8
273.391	537.8
273.777	536.6
274.164	531.8
274.55	548.4
274.937	536.2
275.324	529.2
275.71	539
276.097	541.2
276.484	526.4
276.871	537
277.258	538.8
277.645	525.2
278.032	527.4
278.419	525.6
278.807	543.2
279.194	520.4
279.581	530.2
279.969	542.2
280.356	541.4
280.744	538.6
281.131	549.2
281.519	544.8
281.907	534.6
282.295	533
282.682	550.4
283.07	540.6
283.458	543.8
283.846	550
284.235	544.8
284.623	545.4
285.011	533.2
285.399	538.8
285.788	536
286.176	526
286.565	551.4
286.953	530.4
287.342	527.8
287.731	528.2
288.119	533.8
288.508	531.2
288.897	532
289.286	526.8
289.675	542.2
290.064	538.6
290.453	536.4
290.821	539.4
291.21	551
291.599	531.4
291.989	534.6
292.378	543.2
292.768	547.8
293.157	538.4
293.547	541.8
293.936	535.8
294.326	532.8
294.716	538.2
295.106	540.2
295.496	539.2
295.886	543.8
296.276	532.8
296.666	527.2
297.056	525.2
297.446	527.6
297.836	544.6
298.227	532.4
298.617	534.8
299.008	548.8
299.398	531
299.789	532
300.179	539
300.57	556.2
300.961	533.8
301.352	535.8
301.742	552
302.133	542.2
302.524	528.2
302.915	543.4
303.307	535.6
303.698	539
304.089	546.6
304.48	534.2
304.872	545
305.263	539.6
305.655	526
306.046	535.6
306.438	532.6
306.829	527.4
307.221	557
307.613	538.6
308.005	542
308.397	552
308.789	557.2
309.181	560.8
309.573	546.2
309.965	548.8
310.357	532.4
310.749	541.8
311.142	534
311.534	530.6
311.926	549
312.319	541.8
312.711	531.8
313.104	544.6
313.497	534.6
313.889	574.2
314.282	556
314.675	550.2
315.068	540.4
315.461	546.2
315.854	559
316.247	540
316.64	534.6
317.033	538.6
317.405	544
317.798	537.2
318.192	545
318.585	532.8
318.979	538
319.372	534.6
319.766	538.6
320.16	547
320.553	546
320.947	556.4
321.341	528
321.735	540.6
322.129	527.4
322.523	550.4
322.917	525.8
323.311	544.2
323.705	539.6
324.099	543.4
324.494	546
324.888	543.4
325.282	537.2
325.677	550.4
326.071	538.2
326.466	548
326.861	545.6
327.255	546.8
327.65	552.6
328.045	543.8
328.44	539.6
328.835	540.4
329.23	537.2
329.625	557.2
330.02	528.6
330.415	555.6
330.81	535.4
331.206	539
331.601	538.8
331.996	541.8
332.37	551.2
332.766	527.6
333.161	555.8
333.557	532.2
333.953	539
334.348	882.2
334.744	542.2
335.14	534.8
335.536	531.2
335.932	548.6
336.328	536.4
336.724	545.2
337.12	532
337.516	539.6
337.913	548.4
338.309	552
338.705	527.2
339.102	544.2
339.498	528.6
339.895	544.4
340.291	526.8
340.688	537.4
341.085	528.2
341.481	533.8
341.878	532.8
342.275	547.8
342.672	539.4
343.069	536
343.466	528
343.842	545.2
344.239	526.4
344.636	536
345.033	527.8
345.431	528.2
345.828	534
346.225	526.8
346.623	565.4
347.02	537.8
347.418	542.8
347.816	547.6
348.213	526.8
348.611	533.8
349.009	533
349.407	540.6
349.805	528
350.203	521.8
350.601	540.4
350.999	522.8
351.397	585.6
351.795	532.6
352.193	544
352.57	542.6
352.969	544.4
353.367	524
353.766	528.2
354.164	531.8
354.563	543.8
354.961	531.4
355.36	533.8
355.759	533
356.158	527
356.557	520
356.956	527.8
357.355	522.2
357.754	535
358.153	535.8
358.552	554.8
358.951	528
359.35	542.2
359.75	532.6
360.149	523.4
360.527	515.2
360.926	528
361.326	531.6
361.726	533.6
362.125	534.2
362.525	538.8
362.925	522.8
363.325	532
363.724	535.8
364.124	528.8
364.524	531.4
364.924	521.4
365.324	540.2
365.725	516.2
366.125	535.2
366.525	527.2
366.904	517
367.304	517
367.705	546.6
368.105	534.4
368.506	529.8
368.906	525.8
369.307	525.2
369.708	533.6
370.108	515.2
370.509	520.8
370.91	515.2
371.311	527.6
371.712	529.4
372.113	525
372.514	514.6
372.894	525.6
373.295	525.8
373.696	532.8
374.097	533
374.499	545
374.9	532.2
375.301	525.4
375.703	531.4
376.105	521.2
376.506	531.4
376.908	524.2
377.309	536.2
377.711	523.4
378.113	526.4
378.493	525.4
378.895	526
379.297	540.6
379.699	517.6
380.102	532.6
380.504	523.6
380.906	523
381.308	556.8
381.71	527.6
382.113	537.2
382.515	527
382.918	531.6
383.299	525.2
383.701	535.4
384.104	518.2
384.507	513.4
384.909	531
385.312	520.6
385.715	521.4
386.118	524.8
386.521	513
386.924	535.6
387.327	519.6
387.709	509.8
388.112	513.8
388.515	525.2
388.918	523.6
389.322	530.4
389.725	519.6
390.129	541
390.532	531
390.936	526.4
391.339	517
391.743	528.8
392.125	517.2
392.529	536
392.933	533
393.337	531.2
393.74	522.8
394.144	523.8
394.548	518.8
394.953	530
395.357	529.6
395.761	525.8
396.144	524.4
396.548	538
396.952	529.8
397.357	530
397.761	525.8
398.166	524.2
398.57	526.4
398.975	513.8
399.379	525.6
399.763	574
400.168	525.2
400.572	531.4
400.977	521.2
401.382	548
401.787	540.4
402.192	534.6
402.597	546.2
403.002	513.4
403.386	542.2
403.791	543.8
404.197	526.4
404.602	532.8
405.007	522
405.413	515.8
405.818	527.2
406.224	524.6
406.608	522
407.014	527.8
407.42	541.4
407.825	524.6
408.231	531
408.637	535.4
409.043	533.4
409.449	521.2
409.834	514
410.24	523.4
410.646	538.6
411.052	532.6
411.458	532
411.865	533.6
412.271	541.2
412.677	533.2
413.062	532
413.469	518.8
413.875	547
414.282	541.2
414.689	529
415.095	530.2
415.502	525
415.888	535.2
416.294	526.6
416.701	555.2
417.108	523
417.515	533.6
417.923	535.6
418.33	543.2
418.715	541.2
419.123	523.4
419.53	527
419.937	530
420.345	538.2
420.752	528
421.16	544.6
421.546	534.2
421.953	539
422.361	525.2
422.769	528.6
423.177	519.4
423.585	544.6
423.992	534.6
424.379	538.2
424.787	538.6
425.195	548.2
425.603	535.2
426.011	542
426.419	540.4
426.806	529
427.214	533.4
427.623	546.6
428.031	548.6
428.44	531.6
428.848	537.6
429.235	544
429.644	533
430.053	524.8
430.461	548.2
430.87	550.2
431.279	536.6
431.666	531.2
432.075	537.4
432.484	539.4
432.893	527.2
433.302	535.4
433.711	560.8
434.099	533.2
434.508	526.2
434.918	522.4
435.327	539.4
435.737	530
436.125	532.6
436.534	517.2
436.944	528.6
437.353	534
437.763	548
438.173	519
438.561	533.8
438.971	509.8
439.381	522.4
439.791	519.6
440.201	508.2
440.589	519.8
440.999	523.6
441.409	524.4
441.819	515.8
442.23	531.2
442.619	539.4
443.029	529.4
443.439	536.6
443.85	536.4
444.26	547.4
444.649	533
445.06	526.4
445.471	512.6
445.881	528.6
446.292	536.2
446.682	546.4
447.092	524.4
447.503	570.2
447.914	526.2
448.325	532.6
448.715	522.4
449.126	522.2
449.537	521.8
449.948	528.6
450.338	525
450.75	532.4
451.161	521.6
451.572	528.2
451.984	523
452.374	517.8
452.786	526
453.197	529.2
453.609	528
453.999	516.4
454.411	520.4
454.823	531
455.235	529
455.647	519.6
456.037	520.8
456.449	518.8
456.862	526.8
457.274	529.4
457.665	516.2
458.077	527.4
458.489	548.6
458.902	522.4
459.293	523
459.705	524.6
460.118	521.4
460.53	518.4
460.921	526.6
461.334	520.2
461.747	521.2
462.16	529.2
462.551	532.4
462.964	526.8
463.377	512.2
463.79	517
464.182	530.6
464.595	512.2
465.008	520.6
465.421	531
465.813	522.6
466.226	529.4
466.64	519
467.053	555
467.445	525.6
467.859	538.2
468.272	520.2
468.686	526.8
469.078	522.2
469.492	510.2
469.906	523.2
470.298	526.6
470.712	510
471.126	542.8
471.54	515.8
471.933	523.4
472.347	521.8
472.761	515.4
473.175	510.2
473.568	511.4
473.982	520.2
474.397	524.4
474.79	518
475.204	521.8
475.619	521.4
476.033	528
476.426	528.2
476.841	523.8
477.256	534.8
477.649	515
478.064	514.8
478.479	514.4
478.872	519
479.287	505.4
479.702	517
480.118	519.4
480.511	527.8
480.927	526.6
481.342	514.6
481.736	512.4
482.151	514.2
482.566	531
482.96	533.2
483.376	529.8
483.792	512.2
484.186	513.4
484.602	518.4
485.017	512.2
485.412	514
485.827	521.6
486.243	527
486.638	538.8
487.054	526.2
487.47	534.4
487.865	515
488.281	516.4
488.697	523.4
489.092	522
489.508	517.2
489.925	530
490.32	520.6
490.736	519.8
491.153	515
491.548	526.8
491.964	527.8
492.381	509.2
492.776	526
493.193	520
493.61	530.4
494.006	517.8
494.422	525.4
494.84	515.8
495.235	528
495.652	514.8
496.069	517.4
496.465	510.8
496.883	512.4
497.3	540.4
497.696	519.8
498.113	531.2
498.509	511.6
498.927	511.4
499.344	513.8
499.741	518.8
500.158	525.8
500.576	528
500.973	520.6
501.39	517.2
501.787	507.8
502.205	517
502.623	512
503.02	508.2
503.438	514.8
503.856	525
504.253	519
504.671	529
505.068	512
505.486	512.8
505.905	527
506.302	527.8
506.72	532.2
507.118	510.2
507.536	521.8
507.955	521.6
508.352	519
508.771	524.6
509.169	524.2
509.587	508.6
510.006	514.2
510.404	509.8
510.823	516.8
511.221	511.8
511.64	516.6
512.038	530.2
512.457	511.8
512.877	511
513.275	513.6
513.694	519.4
514.092	514.8
514.512	522.2
514.91	524.8
515.33	526.4
515.749	518
516.148	519.2
516.568	522.6
516.966	522.6
517.386	513.8
517.785	517.2
518.205	510.4
518.603	514.8
519.024	510.2
519.444	520
519.843	524.6
520.263	525.4
520.662	523.8
521.082	514
521.481	517.6
521.902	510.2
522.301	515.2
522.722	517
523.121	509.8
523.542	511.4
523.963	516.2
524.362	513
524.783	517.2
525.183	513
525.604	520
526.003	511.6
526.425	513.8
526.824	516.2
527.246	525.8
527.646	526.6
528.067	515
528.467	512
528.888	523.8
529.289	519.4
529.71	517.2
530.11	511.4
530.532	518.4
530.932	516.8
531.354	509
531.755	546.8
532.176	524
532.577	513
532.999	509.8
533.4	504
533.822	523.8
534.223	521
534.645	517.2
535.046	512.6
535.468	506.4
535.869	532.8
536.292	515.6
536.693	546.6
537.115	516.6
537.516	516.6
537.939	517.4
538.34	526.2
538.742	523.8
539.165	518.6
539.566	513.2
539.989	504.2
540.391	506.6
540.814	513.6
541.216	515.2
541.639	506.8
542.041	520.2
542.464	514
542.866	513.4
543.268	509.8
543.691	518.4
544.093	527.8
544.517	528.8
544.919	507.8
545.343	531
545.745	510.6
546.147	514.6
546.571	512.4
546.974	507.8
547.398	523.6
547.8	521.4
548.224	515
548.627	508
549.03	514.4
549.454	515.6
549.857	508.6
550.281	511.4
550.684	520.8
551.087	524.6
551.512	520
551.915	516.8
552.34	516.6
552.743	514.6
553.146	513
553.571	523
553.975	531.8
554.399	509.2
554.803	557.4
555.207	511
555.632	514.6
556.036	523.8
556.461	512.4
556.865	511.4
557.268	514
557.694	510.4
558.098	517.2
558.502	518.2
558.927	505.4
559.332	509.2
559.736	514.8
560.162	514.2
560.566	511.4
560.992	516
561.396	518
561.801	510.2
562.227	504.6
562.631	509.2
563.036	506.6
563.462	520.8
563.867	512.8
564.272	498
564.698	515.6
565.103	502.2
565.508	527
565.935	515.6
566.34	503.8
566.745	517.6
567.172	509.8
567.577	528.8
567.982	514.6
568.409	522
568.815	501
569.22	511.2
569.626	514.6
570.053	498.8
570.459	519.4
570.865	516
571.292	519.8
571.698	515.4
572.104	504.4
572.531	507.8
572.937	517.4
573.343	505.4
573.75	514
574.177	512
574.583	514.8
574.99	509.8
575.396	514.6
575.824	508.4
576.231	521.4
576.637	510
577.065	535
577.472	504
577.879	508.4
578.286	519.2
578.714	507
579.121	508.6
579.528	513.2
579.935	524.2
580.364	508.6
580.771	492.2
581.178	511
581.585	514.4
582.014	514.8
582.421	502
582.829	511.4
583.236	529.4
583.644	500.4
584.073	504.2
584.481	504.6
584.889	504
585.296	509.8
585.726	516.2
586.134	510.2
586.542	504.8
586.95	530.6
587.358	506.6
587.787	514.4
588.196	504
588.604	505.8
589.012	510.4
589.421	510.4
589.851	501.2
590.259	513
590.668	507.4
591.076	537.2
591.485	506.6
591.894	515
592.324	520.6
592.733	516.6
593.142	498.6
593.551	511.8
593.96	522.6
594.369	498.8
594.8	500.8
595.209	509
595.618	492.8
596.028	510.2
596.437	507.4
596.847	511.2
597.256	514.8
597.687	514.4
598.097	511.4
598.507	503
598.917	512.8
599.327	514.4
599.736	511
600.146	519
600.556	508
600.988	520.6
601.398	507.8
601.808	519.4
602.219	491.8
602.629	511
603.039	509.4
603.45	535.4
603.86	514.6
604.271	521.4
604.703	508.6
605.114	514.6
605.525	519.6
605.935	514.4
606.346	530.2
606.757	514.6
607.168	513.2
607.579	496.8
607.99	527.2
608.402	510.4
608.813	515.8
609.224	510.2
609.636	508
610.047	515.4
610.48	515.4
610.892	520.4
611.303	517
611.715	519.8
612.127	508.6
612.539	520.2
612.95	520.6
613.362	502.6
613.774	503.6
614.186	513.2
614.599	507
615.011	516.2
615.423	515.2
615.835	513.8
616.248	509
616.66	518
617.073	512.6
617.485	516
617.898	522.2
618.311	518.4
618.723	519
619.136	543.4
619.549	533.2
619.962	535.4
620.375	508.2
620.788	517.4
621.201	513.2
621.614	523
622.028	518.8
622.441	521.8
622.854	525.4
623.268	512.2
623.681	524.6
624.095	518.4
624.509	525.8
624.922	524.2
625.336	511
625.728	526.6
626.142	529.4
626.556	540.6
626.97	516.8
627.384	515.6
627.799	524.6
628.213	531.4
628.627	509
629.041	520.8
629.456	512.4
629.87	514.2
630.285	527.2
630.699	527.6
631.093	522
631.507	523.2
631.922	518.4
632.337	537.2
632.752	509.2
633.167	522.6
633.582	524.4
633.997	516.6
634.412	516.2
634.806	516.2
635.221	521
635.637	528.8
636.052	503.4
636.468	523.8
636.883	534.2
637.299	518.8
637.715	508.6
638.109	515.2
638.525	518.4
638.941	524.4
639.357	520
639.773	527.8
640.189	520.8
640.584	513.6
641	524.4
641.416	510.8
641.832	512.6
642.249	513.4
642.665	517.2
643.06	520.6
643.477	524.4
643.894	508.4
644.31	519.8
644.727	519.2
645.123	514
645.54	510.4
645.957	521
646.374	526.4
646.77	516.4
647.187	538.2
647.604	520.6
648.021	508
648.439	516.4
648.835	518.6
649.252	517.4
649.67	518.6
650.088	519.2
650.484	517.4
650.902	522.2
651.32	515.4
651.738	503.4
652.134	521.4
652.552	528.6
652.971	521
653.389	512
653.786	524.8
654.204	524
654.622	508.4
655.019	513.8
655.438	507.6
655.857	513.4
656.275	510.8
656.673	504.4
657.091	516.4
657.51	497.8
657.908	517.2
658.327	516.4
658.746	498.4
659.144	512.4
659.563	522.6
659.982	511.8
660.38	502.6
660.8	504.2
661.219	514.2
661.617	512.4
662.037	505.4
662.457	519.6
662.855	499.6
663.275	530.2
663.695	512.6
664.094	503.2
664.514	504.8
664.934	495.2
665.333	513.4
665.753	505.2
666.152	504
666.572	510.6
666.993	517.4
667.392	497.8
667.812	503.4
668.212	513.6
668.632	513.2
669.053	505.6
669.453	507.4
669.874	508
670.273	511.6
670.694	508
671.116	519.2
671.515	517
671.937	515.2
672.337	505.4
672.758	500
673.158	511.6
673.58	504.2
673.98	502.4
674.402	519.6
674.824	514.6
675.224	508.6
675.646	503.4
676.047	506.2
676.469	511.2
676.869	515.6
677.292	507.6
677.693	504.6
678.115	503.6
678.516	510.6
678.939	511.4
679.34	506.8
679.762	520.8
680.164	502.2
680.586	501.8
680.988	504.8
681.411	537.4
681.812	505.6
682.236	501.2
682.637	495.8
683.061	502.8
683.462	504
683.864	499.2
684.288	507
684.69	506
685.114	516.2
685.516	516.8
685.94	502.6
686.342	511.6
686.766	508.2
687.168	501.8
687.571	525.6
687.995	508.8
688.398	504.2
688.822	503.2
689.225	516
689.628	526
690.052	507.2
690.456	516.2
690.88	513.4
691.284	500.6
691.687	512.8
692.112	504.6
692.515	500.4
692.919	509
693.344	509
693.747	506.6
694.173	505.2
694.577	513.8
694.98	509.4
695.406	505.8
695.81	509.4
696.214	501.4
696.64	501.2
697.044	507.2
697.448	509
697.874	501.4
698.279	506.8
698.684	491.6
699.11	500.6
699.514	505
699.919	501.4
700.324	499.6
700.75	513.4
701.156	507.2
701.561	512
701.987	510.4
702.393	513.2
702.798	514.2
703.203	501.8
703.63	503.8
704.036	504
704.442	508
704.847	501.2
705.274	508.4
705.68	511.2
706.086	513.8
706.492	503
706.92	504.4
707.326	507
707.732	503
708.139	491.8
708.545	500
708.973	496.4
709.38	509.6
709.786	498.6
710.193	520.2
710.6	508
711.028	507.2
711.435	510.2
711.842	505.6
712.249	507.6
712.656	494.2
713.064	510
713.492	493.8
713.9	494.6
714.307	505.4
714.715	497.4
715.123	504.8
715.53	501.6
715.938	507
716.367	503.2
716.775	508.6
717.184	498.8
717.592	502.8
718	515.4
718.408	524.8
718.816	540
719.225	510.2
719.633	502.4
720.042	496.4
720.472	502.4
720.881	525.2
721.29	501.6
721.699	499.4
722.108	500.2
722.517	507.6
722.926	496.6
723.335	509.8
723.744	500.6
724.154	503.2
724.563	516.6
724.973	501.6
725.382	510.4
725.792	494.4
726.202	497.6
726.612	512.4
727.022	500.6
727.432	501.6
779.813	503.6
780.223	538
780.634	498.4
781.044	494
781.454	496.8
781.865	512.8
782.276	491.8
782.686	504.8
783.097	495.8
783.508	501.4
783.919	503.6
784.33	518.4
784.741	516.8
785.152	496.2
785.563	498.2
785.974	494.6
786.386	511.4
786.776	494.2
787.188	496.4
787.599	493.2
788.011	508.4
788.423	517.6
788.835	502.2
789.247	494.4
789.659	500.8
790.071	497.2
790.483	534.4
790.874	505.4
791.286	509
791.699	505
792.111	500
792.524	504.6
792.937	509.6
793.349	498.6
793.741	494.4
794.154	502.4
794.567	514.2
794.98	495.6
795.393	489.8
795.785	518.6
796.198	503.6
796.612	506
797.026	503.8
797.439	487.6
797.831	506.8
798.245	485
798.659	504
799.073	504.4
799.487	500.6
799.88	506.2
800.294	504.4
800.708	509.4
801.123	512.6
801.516	514
801.93	491.4
802.345	491.4
802.76	496.2
803.153	516.2
803.568	509.8
803.983	512.8
804.377	500
804.792	489.8
805.207	494.2
805.601	497.8
806.016	525.2
806.432	493.6
806.826	518.6
807.242	513.8
807.658	500.4
808.052	501.6
808.468	509.6
808.884	495
809.279	498.4
809.695	508.4
810.111	521.2
810.506	508.4
810.922	512.4
811.339	496.8
811.734	505.8
812.151	498.2
812.546	497.8
812.963	496.4
813.38	504
813.776	503.2
814.193	513.2
814.589	495.6
815.006	500
815.402	495.6
815.82	494
816.237	497.2
816.633	497.4
817.051	493.8
817.448	504
817.866	495.2
818.262	518.2
818.68	508
819.077	496.8
819.495	502.6
819.892	534.8
820.311	495
820.708	504.6
821.127	497.6
821.524	504.4
821.943	509.8
822.34	512.4
822.759	505.6
823.157	499.4
823.576	504.6
823.974	501.4
824.393	552.6
824.791	498.6
825.189	496.8
825.609	496
826.007	498
826.427	481
826.826	501.4
827.246	502.6
827.644	488
828.043	512
828.463	488.8
828.862	502.6
829.261	500
829.682	495.4
830.081	507.4
830.502	497.2
830.901	505.2
831.301	497.6
831.722	491.8
832.121	491.8
832.521	504.6
832.943	498.8
833.342	494.2
833.742	498.6
834.164	505.8
834.564	499
834.965	499.4
835.386	499.4
835.787	494.8
836.188	501.8
836.588	501.4
837.01	492.4
837.411	500.4
837.812	510.6
838.213	499.4
838.636	495.6
839.037	559.2
839.438	501.4
839.84	495.8
840.263	501.4
840.664	506.2
841.066	493.2
841.468	505.6
841.891	501
842.293	508.8
842.695	503.4
843.098	512
843.5	506.2
843.902	501
844.326	507.6
844.729	505.6
845.131	509.4
845.534	505.2
845.937	519.4
846.34	515
846.764	498
847.167	503.8
847.571	495.8
847.974	495.4
848.377	496.6
848.781	543.8
849.184	508.2
849.588	494
849.992	494.2
850.396	502
850.821	519
851.225	501
851.63	500.4
852.034	512.8
852.438	499
852.843	521.6
853.247	494.2
853.652	496.4
854.057	507
854.462	508.2
854.867	501.8
855.272	525.4
855.677	511.8
856.082	495.2
856.487	487.4
856.893	495.4
857.298	501.2
857.704	499.2
858.11	498.4
858.516	509.2
858.922	503.2
859.328	500.8
859.734	498.6
860.14	512
860.525	498.4
860.931	500
861.338	499
861.745	495.8
862.151	510.4
862.558	490.2
862.965	490.6
863.372	498.8
863.779	497.2
864.186	511.2
864.572	501.2
864.98	509.6
865.387	523
865.795	488.8
866.203	507.6
866.61	492.2
867.018	505.2
867.405	496
867.813	491
868.221	501.4
868.63	493.4
869.038	511.2
869.425	524.4
869.834	506
870.243	500.2
870.652	498.6
871.039	496
871.448	497.2
871.857	511.8
872.266	507.4
872.654	500.2
873.064	493.4
873.473	506
873.883	488.2
874.271	490.6
874.681	503
875.091	485.6
875.48	505.2
875.89	515.6
876.3	494.4
876.689	484.8
877.1	503
877.51	483.6
877.9	514.4
878.31	495.8
878.721	520.6
879.111	501.2
879.522	499.6
879.933	491
880.323	493.4
880.734	494
881.125	501.6
881.536	495.2
881.948	492.2
882.338	491.6
882.75	496.8
883.141	499.6
883.553	499.4
883.944	518.6
884.356	498.2
884.769	491
885.16	498.2
885.573	493.6
885.964	493.8
886.377	494.8
886.768	492.2
887.181	495
887.573	487.6
887.987	509.6
888.378	506
888.792	498.8
889.184	536.2
889.598	498.4
889.99	500.4
890.383	494.2
890.797	488.6
891.19	505.4
891.604	498
891.997	495.2
892.411	485.8
892.805	495.8
893.198	486
893.613	484.8
894.006	504.6
894.421	490.8
894.815	495.2
895.209	493.4
895.624	530.2
896.018	519
896.412	487.8
896.828	493.8
897.222	501.2
897.617	502
898.033	509.2
898.427	502.4
898.822	496.8
899.239	492
899.634	490.8
900.029	503.2
900.424	482.2
900.841	484.2
901.236	502.2
901.632	501.4
902.027	541
902.445	509
902.841	494.2
903.237	490
903.633	500.6
904.05	497
904.447	502.2
904.843	504
905.24	500
905.636	486
906.033	483.2
906.451	502.4
906.848	485.8
907.246	481.2
907.643	489.2
908.04	494.2
908.438	511
908.835	497
909.254	498
909.652	495.2
910.05	492
910.448	488.2
910.846	497.6
911.244	488.4
911.643	497.2
912.041	502
912.44	507
912.839	494.2
913.237	491.6
913.636	494
914.035	501.6
914.434	489.8
914.834	501.4
915.233	503
915.633	497.8
916.032	489.2
916.432	490.4
916.832	508.4
917.232	490.2
917.632	493.6
918.032	495.4
918.432	490.6
918.833	493.2
919.233	496.8
919.634	486.8
920.035	502.6
920.436	493.4
920.837	494
921.238	488.2
921.639	491.2
922.019	497
922.42	489.2
922.822	494
923.224	489.8
923.625	492
924.027	497.4
924.429	511.2
924.81	497.8
925.212	501.2
925.615	496
926.017	494.6
926.42	501.4
926.801	501.4
927.204	496.4
927.607	502
928.01	505.8
928.413	500.4
928.795	490.2
929.199	488.6
929.602	492.2
930.006	490.6
930.388	495
930.792	503.4
931.196	499.6
931.579	519.2
931.983	484.6
932.388	536.8
932.771	492.6
933.176	487
933.58	496.4
933.964	504.6
934.369	487.8
934.774	501.6
935.158	489.8
935.563	499.6
935.947	500.6
936.353	499.2
936.759	490.4
937.143	505.8
937.549	495
937.934	504.4
938.34	513.6
938.746	489.6
939.131	490.8
939.538	495.8
939.923	492.8
940.33	492.4
940.716	496.6
941.123	498
941.508	496.4
941.916	504.4
942.302	502.6
942.709	494.4
943.096	492.2
943.503	501.4
943.89	494.6
944.298	493.6
944.685	527.6
945.072	487.6
945.48	497.2
945.867	493.2
946.276	485.8
946.663	512.2
947.051	511.8
947.46	494
947.848	503.6
948.257	494
948.645	497
949.033	483.6
949.443	492.2
949.831	528.8
950.22	490.8
950.63	496.2
951.018	510.4
951.407	500.8
951.796	488.2
952.207	500
952.596	504.8
952.985	489.2
953.375	527.6
953.786	491.6
954.176	483.6
954.566	503.2
954.956	485.8
955.367	497.6
955.758	511.2
956.148	482.8
956.539	502.2
956.929	485.4
957.341	493.6
957.732	490.6
958.123	502.2
958.515	476.8
958.906	502.8
959.297	489.8
959.689	490.6
960.102	484.8
960.494	499.8
960.886	485.8
961.278	485.8
961.67	506.4
962.062	519.8
962.455	488.2
962.847	491.6
963.24	492.2
963.633	495.4
964.026	484.6
964.419	495.2
964.812	499.8
965.206	492.4
965.599	491.4
965.993	495
966.386	484.8
966.78	509
967.174	503.4
967.569	495.2
967.963	496.8
968.357	484.2
968.752	493
969.146	486.6
969.541	485.8
969.936	488.4
970.331	494
970.705	495.6
971.1	489.8
971.496	496
971.892	479.4
972.287	488
972.683	497.2
973.079	496.6
973.454	507.4
973.85	502
974.247	501.8
974.643	510.6
975.04	491.4
975.415	489.8
975.812	490
976.209	505.8
976.607	480.4
976.982	506
977.38	507.2
977.778	493.6
978.175	492.6
978.552	486
978.95	493.6
979.348	500.2
979.725	528
980.123	487.8
980.522	493.4
980.899	492.8
981.298	492.2
981.697	501.2
982.075	502
982.474	490.4
982.852	496.2
983.251	489
983.651	492.8
984.029	506.2
984.429	500.2
984.808	482.2
985.208	497.4
985.609	486.6
985.987	480.6
986.388	487.8
986.768	497.8
987.168	483
987.548	503.8
987.949	502.6
988.329	501.6
988.731	484.4
989.111	493
989.491	484.2
989.893	491.8
990.273	499.6
990.676	482.4
991.057	483.8
991.459	486.2
991.84	483.4
992.221	485
992.624	499.8
993.006	489.4
993.388	489.6
993.791	501
994.173	492.2
994.576	521.4
994.959	481.8
995.341	484.2
995.724	488.6
996.128	495.2
996.511	499.4
996.894	482.2
997.298	494.6
997.681	490
998.065	490
998.448	489
998.854	489
999.237	485.2
999.621	505
1000.01	505.8
1000.39	493.6
1000.8	483.6
1001.18	498.4
1001.56	496.6
1001.95	489.8
1002.33	492.4
1002.72	489
1003.13	491
1003.51	491.2
1003.9	490.6
1004.28	506.2
1004.67	486.2
1005.06	490.4
1005.44	523
1005.83	485.2
1006.21	490.2
1006.6	485.8
1006.99	500.2
1007.37	501.2
1007.76	487.2
1060.12	487.8
1060.51	484.4
1060.89	490.2
1061.28	500
1061.67	489.8
1062.06	492.2
1062.45	491.2
1062.83	478.8
1063.22	505.6
1063.61	519.6
1064	489
1064.39	486.2
1064.78	487.6
1065.14	495.6
1065.53	493.6
1065.92	491.2
1066.31	486
1066.7	495.2
1067.09	497.8
1067.46	499.2
1067.85	490.8
1068.24	478.4
1068.63	497.2
1069.02	489.8
1069.39	494.6
1069.78	492.6
1070.17	487
1070.57	484
1070.93	488.8
1071.33	485.6
1071.72	494.2
1072.11	491.6
1072.48	491.2
1072.87	500.4
1073.26	492.4
1073.64	483.6
1074.03	487
1074.4	493.2
1074.79	491
1075.19	500.8
1075.56	496.6
1075.95	498.8
1076.34	493.6
1076.72	485.2
1077.11	500.4
1077.48	500.6
1077.88	489
1078.25	497.6
1078.64	498.6
1079.02	495
1079.41	495
1079.78	489
1080.18	483.2
1080.55	536
1080.95	486.6
1081.32	490.8
1081.72	501.8
1082.09	496.8
1082.49	487.2
1082.86	488.4
1083.24	481
1083.63	486.4
1084.01	488.2
1084.38	493
1084.78	480
1085.16	495.6
1085.55	506
1085.93	501.2
1086.31	495.2
1086.7	510.4
1087.08	487.6
1087.46	486.6
1087.83	493.2
1088.23	496.2
1088.61	485.6
1088.99	497
1089.36	490.6
1089.76	490.8
1090.14	495.2
1090.52	483.6
1090.9	494
1091.27	504.8
1091.67	513.6
1092.05	497
1092.43	485.6
1092.81	497
1093.19	490.2
1093.57	492.8
1093.95	494.2
1094.35	496.2
1094.73	498.4
1095.11	482.6
1095.49	484.8
1095.87	492.2
1096.25	495.8
1096.63	490.2
1097.01	494.8
1097.39	495
1097.77	499.2
1098.15	492
1098.53	487
1098.91	485.6
1099.29	494
1099.68	501.6
1100.06	494.6
1100.44	493.6
1100.82	491.4
1101.18	501
1101.56	486.4
1101.95	487.2
1102.33	488
1102.71	494.8
1103.1	479.4
1103.48	484.8
1103.86	482
1104.22	494.4
1104.61	486.2
1104.99	493.6
1105.38	484
1105.76	488
1106.12	484.2
1106.51	513.6
1106.89	495.6
1107.26	493.8
1107.64	498.4
1108.03	490.6
1108.41	490.8
1108.78	489.6
1109.16	491.2
1109.55	498
1109.91	477.8
1110.3	474.2
1110.69	492.2
1111.05	493.8
1111.44	485.8
1111.8	486.2
1112.19	484.6
1112.58	496.6
1112.94	494.6
1113.33	494.2
1113.7	484.2
1114.09	487.6
1114.45	487.6
1114.84	491.4
1115.21	494
1115.6	482.8
1115.96	491.4
1116.35	493.8
1116.72	486.8
1117.11	499.4
1117.48	485.2
1117.85	489.6
1118.24	503
1118.6	494.6
1118.99	482.8
1119.36	493.8
1119.73	490.4
1120.12	495.8
1120.49	477.6
1120.86	496.8
1121.25	490
1121.62	480.8
1121.99	488.2
1122.38	505
1122.76	496.6
1123.13	486.4
1123.5	493.2
1123.89	490.4
1124.26	479.6
1124.63	494.6
1125	488.2
1125.4	476.8
1125.77	488
1126.14	473.8
1126.51	480.8
1126.88	487.8
1127.26	486.4
1127.63	475.2
1128.02	484.6
1128.4	490.6
1128.77	488.8
1129.14	494.4
1129.52	492
1129.89	486.8
1130.26	487.2
1130.64	481.8
1131.01	481.2
