#lambda/nm	C1
208.295	466.6
208.67	429.6
209.045	393.6
209.419	396.2
209.794	538
210.169	519.6
210.544	624.4
210.919	534.4
211.295	530
211.67	530.6
212.045	529
212.421	535.4
212.796	561.8
213.172	525
213.547	532.6
213.923	532.4
214.299	525.4
214.675	537.8
215.051	540.2
215.427	545.2
215.803	555.4
216.179	537
216.555	530.4
216.932	539
217.308	541.6
217.684	535.4
218.061	547.4
218.438	540.2
218.814	533.6
219.191	544.6
219.568	529.4
219.945	539.2
220.322	535.6
220.699	532.4
221.076	548.2
221.453	540.8
221.83	532.2
222.208	531.4
222.585	530.4
222.962	535.2
223.34	537.2
223.717	541.2
224.095	534.6
224.473	538.6
224.851	537.6
225.229	525.8
225.607	545.8
225.985	528.2
226.363	536.4
226.741	547
227.119	539.4
227.497	550.8
227.876	526.4
228.254	547
228.633	546
229.011	544.8
229.39	538.8
229.769	536.4
230.148	544.6
230.527	550.2
230.905	541.8
231.284	539.8
231.664	536.6
232.043	543.4
232.422	535.2
232.801	531.6
233.181	537.6
233.56	538.8
233.94	534.4
234.319	527.6
234.699	529.2
235.079	568.8
235.458	562.2
235.838	543.4
236.218	530.2
236.598	525.8
236.978	526.6
237.358	525.2
237.738	531.2
238.119	545.4
238.499	534
238.88	534.2
239.26	547.2
239.641	533.8
240.021	530.6
240.402	534.4
240.783	538.8
241.163	535
241.544	541.6
241.925	535.8
242.306	547.4
242.687	534.2
243.069	538.6
243.45	538.8
243.831	528.6
244.212	534.8
244.594	564.2
244.975	546.8
245.357	541
245.739	530.8
246.12	530.4
246.502	549.8
246.884	529.8
247.266	528
247.648	537.2
248.03	548
248.412	542.6
248.794	538.2
249.176	537.8
249.559	546.2
249.941	531.2
250.323	532.4
250.706	534.2
251.089	530.8
251.471	541.2
251.854	531.2
252.237	536.2
252.62	546.2
253.002	538.6
253.385	540.4
253.769	554.2
254.152	538
254.535	546.8
254.918	528.8
255.301	533.4
255.685	527.2
256.068	531.2
256.452	555.8
256.835	546.2
257.219	535.4
257.603	551.2
257.986	530.6
258.37	548.4
258.754	529.4
259.138	541.4
259.522	541
259.906	525.4
260.29	540
260.675	531.6
261.059	535.4
261.443	530
261.828	541
262.212	537.6
262.597	521.2
262.981	527.2
263.366	535.8
263.751	534.2
264.136	530.4
264.521	526.4
264.906	532.6
265.291	540.4
265.676	528.6
266.061	532
266.446	541.8
266.831	535.8
267.217	549.6
267.602	541
267.987	533.2
268.373	528.4
268.759	543.2
269.144	547.2
269.53	537.8
269.916	527
270.302	531.2
270.688	541.2
271.074	535.8
271.46	543.4
271.846	558.6
272.232	539.4
272.618	534.6
273.004	538
273.391	546.4
273.777	547.8
274.164	540
274.55	548
274.937	542
275.324	536.6
275.71	540.2
276.097	543.6
276.484	534.6
276.871	540.2
277.258	539.8
277.645	530.2
278.032	538.2
278.419	541.6
278.807	536.6
279.194	537.6
279.581	533.4
279.969	542
280.356	540.8
280.744	532.4
281.131	564.2
281.519	549.4
281.907	534.4
282.295	532.8
282.682	550.2
283.07	541
283.458	545.2
283.846	538.4
284.235	547
284.623	540.8
285.011	529.4
285.399	535
285.788	532.4
286.176	528.8
286.565	546.6
286.953	524
287.342	530.8
287.731	527.4
288.119	528
288.508	526
288.897	539.6
289.286	523.6
289.675	536
290.064	545.6
290.453	527
290.821	529.8
291.21	544.8
291.599	537.2
291.989	543.2
292.378	542.6
292.768	547.8
293.157	551.6
293.547	544.6
293.936	531.6
294.326	530.2
294.716	538.8
295.106	532.4
295.496	538.4
295.886	541.8
296.276	540
296.666	526.4
297.056	528.4
297.446	530.4
297.836	549.6
298.227	522.2
298.617	534.6
299.008	545
299.398	527.6
299.789	528.8
300.179	534.8
300.57	542
300.961	539.6
301.352	532.4
301.742	542.8
302.133	534.8
302.524	527.6
302.915	535
303.307	526.2
303.698	547.2
304.089	536.2
304.48	538.2
304.872	536.2
305.263	537.8
305.655	531.6
306.046	539.6
306.438	542.8
306.829	535.6
307.221	539.8
307.613	544.2
308.005	551.6
308.397	538.6
308.789	550.2
309.181	561.8
309.573	550.6
309.965	541.2
310.357	533.6
310.749	546.8
311.142	521.4
311.534	531.6
311.926	538.2
312.319	537
312.711	527.4
313.104	553.6
313.497	530.4
313.889	568.8
314.282	553
314.675	564.2
315.068	537.4
315.461	542.4
315.854	565.2
316.247	537.4
316.64	537.6
317.033	544
317.405	546.2
317.798	538
318.192	539.8
318.585	530.6
318.979	545.4
319.372	535.2
319.766	539
320.16	543.4
320.553	547.8
320.947	554.8
321.341	527
321.735	537
322.129	526.2
322.523	556.4
322.917	533
323.311	543
323.705	546.4
324.099	540
324.494	549.8
324.888	545.2
325.282	538.4
325.677	555.4
326.071	551.2
326.466	547.6
326.861	537
327.255	544.8
327.65	550.6
328.045	553.8
328.44	539.6
328.835	535.8
329.23	534.2
329.625	557.6
330.02	535.6
330.415	547.4
330.81	536
331.206	537
331.601	535.4
331.996	548.2
332.37	549.8
332.766	529.4
333.161	557.6
333.557	536.6
333.953	534.2
334.348	801.6
334.744	533
335.14	534.6
335.536	530.8
335.932	544.2
336.328	535.2
336.724	545.2
337.12	533.4
337.516	542.4
337.913	534.6
338.309	545
338.705	534
339.102	543.4
339.498	535
339.895	544.6
340.291	536.8
340.688	539.2
341.085	527
341.481	533.8
341.878	544.4
342.275	555.2
342.672	532.6
343.069	534
343.466	523.4
343.842	547.6
344.239	537
344.636	533.4
345.033	530.6
345.431	524.4
345.828	531.4
346.225	535
346.623	554
347.02	539.2
347.418	541.8
347.816	545.6
348.213	527.6
348.611	537.6
349.009	535.2
349.407	539.4
349.805	527.4
350.203	528
350.601	552.4
350.999	528
351.397	576
351.795	535.6
352.193	542
352.57	549
352.969	536.6
353.367	530.2
353.766	527.6
354.164	533.4
354.563	538.6
354.961	533.2
355.36	532.6
355.759	526.8
356.158	523
356.557	523
356.956	529
357.355	523.4
357.754	524.4
358.153	538
358.552	547.6
358.951	528.8
359.35	539.8
359.75	521.4
360.149	520.4
360.527	517.8
360.926	510
361.326	531.4
361.726	525.4
362.125	518.6
362.525	539.6
362.925	530
363.325	531.6
363.724	527.4
364.124	525.4
364.524	515.6
364.924	525
365.324	538.8
365.725	513.8
366.125	533.6
366.525	526.2
366.904	524.2
367.304	512.8
367.705	548
368.105	538.6
368.506	527.6
368.906	528.8
369.307	530.4
369.708	531
370.108	522.4
370.509	540.6
370.91	517.2
371.311	528.8
371.712	534.4
372.113	527.4
372.514	518.8
372.894	524.6
373.295	523.8
373.696	536.6
374.097	533.2
374.499	545.8
374.9	526.8
375.301	522.8
375.703	528
376.105	523.6
376.506	532.2
376.908	532.8
377.309	534.4
377.711	527
378.113	523
378.493	532.6
378.895	519
379.297	544.6
379.699	521.8
380.102	533.6
380.504	531.8
380.906	529.4
381.308	553.8
381.71	521.8
382.113	540.6
382.515	527.4
382.918	527.8
383.299	529.8
383.701	535.6
384.104	529.2
384.507	517.6
384.909	522.4
385.312	511.6
385.715	516.6
386.118	529.4
386.521	520.8
386.924	537.4
387.327	527.2
387.709	516.4
388.112	513
388.515	524.6
388.918	522.8
389.322	528
389.725	517.4
390.129	544.8
390.532	527.8
390.936	524.4
391.339	520.4
391.743	527.8
392.125	523.8
392.529	528.6
392.933	532.6
393.337	523
393.74	521.6
394.144	522.2
394.548	521.4
394.953	528
395.357	535.2
395.761	527
396.144	532.2
396.548	521
396.952	525.6
397.357	530
397.761	529
398.166	526.6
398.57	523
398.975	519.2
399.379	526.6
399.763	570.2
400.168	526.8
400.572	523
400.977	518.8
401.382	545.8
401.787	534.2
402.192	538.8
402.597	543.8
403.002	521.2
403.386	533.8
403.791	540.2
404.197	524.2
404.602	533.2
405.007	523.2
405.413	526.2
405.818	533
406.224	524.2
406.608	522.4
407.014	516.4
407.42	538.4
407.825	524
408.231	535.6
408.637	524.8
409.043	537
409.449	521.8
409.834	518.2
410.24	529.8
410.646	540.8
411.052	528.6
411.458	533
411.865	535
412.271	528.2
412.677	526.6
413.062	532.8
413.469	517.8
413.875	543.8
414.282	537.8
414.689	535.8
415.095	532.8
415.502	527.8
415.888	529.2
416.294	516.8
416.701	562.8
417.108	526.8
417.515	538.6
417.923	519.4
418.33	540.6
418.715	530.6
419.123	527.8
419.53	526.2
419.937	527
420.345	543.8
420.752	528.2
421.16	540.4
421.546	530.8
421.953	522.2
422.361	526.8
422.769	528.8
423.177	528
423.585	544.4
423.992	546.4
424.379	530.6
424.787	539.4
425.195	545
425.603	523.8
426.011	534.8
426.419	538.2
426.806	531.6
427.214	535.4
427.623	536.8
428.031	543
428.44	525.4
428.848	538.4
429.235	541.4
429.644	527
430.053	529.4
430.461	541.4
430.87	552.4
431.279	537.8
431.666	527.4
432.075	525.2
432.484	530.2
432.893	519.6
433.302	536.6
433.711	560.2
434.099	528.8
434.508	531.4
434.918	519
435.327	535
435.737	533.4
436.125	520.8
436.534	534.2
436.944	529.8
437.353	522
437.763	541.8
438.173	515
438.561	541.8
438.971	516
439.381	521.6
439.791	527.8
440.201	507
440.589	526
440.999	530.6
441.409	536.4
441.819	519.8
442.23	534.6
442.619	531.2
443.029	527.8
443.439	524.6
443.85	538.2
444.26	538.4
444.649	535.8
445.06	531.4
445.471	521
445.881	525.8
446.292	542.4
446.682	549.2
447.092	511.4
447.503	563
447.914	518
448.325	525.4
448.715	527.6
449.126	516
449.537	523
449.948	524.4
450.338	528.8
450.75	529.4
451.161	530
451.572	532.8
451.984	514.4
452.374	513
452.786	524
453.197	522.4
453.609	531.6
453.999	514.2
454.411	513.2
454.823	531
455.235	525.8
455.647	516.4
456.037	527.8
456.449	518
456.862	525.6
457.274	531.8
457.665	512.8
458.077	526.6
458.489	542.6
458.902	511.6
459.293	518.4
459.705	527.6
460.118	513
460.53	526.4
460.921	526.2
461.334	525.8
461.747	522.4
462.16	530.2
462.551	534.2
462.964	531.4
463.377	516
463.79	522.6
464.182	529
464.595	521.4
465.008	524.2
465.421	530.8
465.813	520.2
466.226	529.8
466.64	516.8
467.053	562
467.445	530
467.859	531.2
468.272	530.4
468.686	529.8
469.078	518
469.492	516.4
469.906	533.4
470.298	534.6
470.712	520.2
471.126	542.4
471.54	509.8
471.933	511.8
472.347	513.8
472.761	520.6
473.175	508.4
473.568	522.8
473.982	515.4
474.397	521.8
474.79	516.2
475.204	522.6
475.619	518
476.033	526.2
476.426	517.4
476.841	519
477.256	535.4
477.649	510.2
478.064	516
478.479	515.6
478.872	507.2
479.287	508
479.702	516.2
480.118	517.6
480.511	526.6
480.927	518.4
481.342	514.2
481.736	524.2
482.151	514.2
482.566	522.8
482.96	528
483.376	533.8
483.792	515.8
484.186	520.8
484.602	523
485.017	521
485.412	519.6
485.827	524.2
486.243	517.8
486.638	541.2
487.054	530
487.47	530.4
487.865	522.4
488.281	525.8
488.697	509
489.092	512
489.508	506.4
489.925	530.4
490.32	511.4
490.736	520.4
491.153	514.2
491.548	520
491.964	523.8
492.381	497.8
492.776	521.8
493.193	516.8
493.61	520.4
494.006	521
494.422	519.2
494.84	512
495.235	522.4
495.652	517.6
496.069	519
496.465	509.6
496.883	520.2
497.3	541
497.696	514.4
498.113	514.8
498.509	510.2
498.927	511.8
499.344	509.6
499.741	511
500.158	526.8
500.576	527.4
500.973	522.8
501.39	516.8
501.787	513.8
502.205	519.6
502.623	513
503.02	508
503.438	510.4
503.856	519.4
504.253	512.4
504.671	511.8
505.068	509.8
505.486	516.4
505.905	521.8
506.302	514
506.72	529
507.118	519
507.536	510.6
507.955	510.4
508.352	524.2
508.771	519.2
509.169	528.4
509.587	508.2
510.006	517.2
510.404	515.2
510.823	507
511.221	517.4
511.64	508.8
512.038	527.8
512.457	519.6
512.877	514.4
513.275	516
513.694	514.2
514.092	509.8
514.512	521
514.91	523.4
515.33	515.8
515.749	518.4
516.148	523
516.568	508.8
516.966	517.4
517.386	512.8
517.785	524.2
518.205	514.4
518.603	514.2
519.024	511.4
519.444	518.4
519.843	523.4
520.263	527.6
520.662	528.4
521.082	523.8
521.481	517.6
521.902	518.2
522.301	518.4
522.722	520.8
523.121	515.4
523.542	515.8
523.963	515.2
524.362	523
524.783	526.2
525.183	517.2
525.604	517
526.003	517.2
526.425	511.4
526.824	521.4
527.246	525.6
527.646	521.6
528.067	518.4
528.467	517.2
528.888	509.6
529.289	520.2
529.71	512.8
530.11	512.8
530.532	504.4
530.932	510
531.354	508.6
531.755	536
532.176	522.6
532.577	520.4
532.999	517.6
533.4	512.2
533.822	520.8
534.223	510.8
534.645	514
535.046	512
535.468	514.2
535.869	523.4
536.292	509.2
536.693	544.6
537.115	520.4
537.516	512.4
537.939	521.4
538.34	535.4
538.742	518.8
539.165	517.4
539.566	515.6
539.989	507.2
540.391	509.2
540.814	519.4
541.216	515.8
541.639	517
542.041	523.6
542.464	513.8
542.866	501.2
543.268	504.8
543.691	522.6
544.093	518.2
544.517	527.2
544.919	504.4
545.343	537.4
545.745	510.4
546.147	518
546.571	509.2
546.974	506.4
547.398	518.2
547.8	528.8
548.224	507
548.627	509.2
549.03	524.8
549.454	507
549.857	510.6
550.281	513.6
550.684	513.4
551.087	523.4
551.512	518
551.915	519
552.34	509.6
552.743	513.8
553.146	516.2
553.571	508.8
553.975	527.2
554.399	503.2
554.803	553.2
555.207	502
555.632	509.4
556.036	512.6
556.461	513.8
556.865	512
557.268	507.4
557.694	511.6
558.098	519.2
558.502	512.6
558.927	504.8
559.332	516
559.736	512.8
560.162	512.8
560.566	516.2
560.992	522.8
561.396	521.6
561.801	516.6
562.227	514.8
562.631	519
563.036	509.4
563.462	517.6
563.867	523.8
564.272	508.2
564.698	525.6
565.103	510.6
565.508	534
565.935	514
566.34	523
566.745	521.8
567.172	507.6
567.577	534.4
567.982	526.4
568.409	516
568.815	506
569.22	517.4
569.626	527.6
570.053	506.2
570.459	514
570.865	519.6
571.292	516.2
571.698	514.4
572.104	504.2
572.531	517.8
572.937	521.6
573.343	515.2
573.75	513.8
574.177	511.8
574.583	514.4
574.99	512.8
575.396	516.6
575.824	505.4
576.231	515.6
576.637	504.4
577.065	534.2
577.472	507
577.879	506.6
578.286	522.8
578.714	508.2
579.121	508.2
579.528	514
579.935	516.4
580.364	517.8
580.771	496.8
581.178	505.2
581.585	506
582.014	514.8
582.421	509.6
582.829	510.6
583.236	520.2
583.644	502.8
584.073	509
584.481	515.4
584.889	510.2
585.296	518.2
585.726	507.4
586.134	506.8
586.542	500.4
586.95	529
587.358	505.2
587.787	517.6
588.196	505.4
588.604	507
589.012	516.6
589.421	502.6
589.851	499.2
590.259	522
590.668	507.8
591.076	536.4
591.485	507.4
591.894	516
592.324	526.2
592.733	527.4
593.142	501.6
593.551	518.2
593.96	547
594.369	507.4
594.8	504
595.209	517.4
595.618	511.6
596.028	514.2
596.437	504.2
596.847	516.2
597.256	519.2
597.687	521.4
598.097	527.2
598.507	510.4
598.917	524
599.327	523.8
599.736	536
600.146	528.8
600.556	524.6
600.988	525.2
601.398	520
601.808	532
602.219	516.2
602.629	525
603.039	529.2
603.45	540.2
603.86	536
604.271	542.4
604.703	536.8
605.114	535.2
605.525	533.6
605.935	534.6
606.346	554
606.757	541.4
607.168	532
607.579	530
607.99	550.2
608.402	541.2
608.813	544.6
609.224	544
609.636	540.2
610.047	539.6
610.48	554.4
610.892	552.8
611.303	562.4
611.715	550.6
612.127	548.6
612.539	554.6
612.95	559.6
613.362	551.8
613.774	558.4
614.186	556.4
614.599	559.8
615.011	571.8
615.423	572.2
615.835	565.4
616.248	561.4
616.66	572.2
617.073	573.4
617.485	576.6
617.898	575.6
618.311	583.4
618.723	577
619.136	602
619.549	591.2
619.962	607
620.375	588.6
620.788	588.4
621.201	584.8
621.614	587.6
622.028	585.2
622.441	586.8
622.854	602
623.268	584.6
623.681	602
624.095	591.4
624.509	602.8
624.922	592.2
625.336	584.2
625.728	592.2
626.142	593.6
626.556	605.6
626.97	593.2
627.384	586
627.799	591.6
628.213	602.4
628.627	596.8
629.041	588
629.456	599
629.87	602.8
630.285	600.6
630.699	607.4
631.093	597.4
631.507	602.6
631.922	592.8
632.337	614.6
632.752	580.8
633.167	584.2
633.582	592.4
633.997	584.2
634.412	582.6
634.806	583.4
635.221	580.4
635.637	593.4
636.052	585.8
636.468	585.8
636.883	597.2
637.299	578.6
637.715	567.2
638.109	576.8
638.525	574.8
638.941	596.6
639.357	580.8
639.773	577.2
640.189	567.6
640.584	575
641	571.8
641.416	567.2
641.832	567.2
642.249	559.4
642.665	572
643.06	576
643.477	569.6
643.894	553
644.31	569.2
644.727	557.4
645.123	563.2
645.54	543.4
645.957	563.6
646.374	572.6
646.77	556.4
647.187	579.8
647.604	552.6
648.021	544.2
648.439	542
648.835	557.2
649.252	559.4
649.67	539.6
650.088	548.4
650.484	538.2
650.902	542.4
651.32	552.8
651.738	543
652.134	545.6
652.552	546.2
652.971	540.2
653.389	541.4
653.786	553.2
654.204	543.8
654.622	537.4
655.019	538.4
655.438	538.6
655.857	530.8
656.275	532.2
656.673	531.6
657.091	545.8
657.51	538.6
657.908	543.8
658.327	542.4
658.746	529.2
659.144	535.4
659.563	541.4
659.982	531.8
660.38	528.4
660.8	532.4
661.219	544.2
661.617	533.2
662.037	529.2
662.457	531.8
662.855	519.4
663.275	545.2
663.695	524.8
664.094	531
664.514	527.6
664.934	525.2
665.333	533.4
665.753	525.4
666.152	516.2
666.572	522.2
666.993	535.2
667.392	518.2
667.812	519.2
668.212	524.2
668.632	529.2
669.053	514.8
669.453	527.4
669.874	519.6
670.273	526.4
670.694	514.8
671.116	527.6
671.515	521.6
671.937	516.4
672.337	515.6
672.758	517
673.158	525.8
673.58	510.4
673.98	521.2
674.402	524.8
674.824	511
675.224	509.8
675.646	503
676.047	508.8
676.469	506.4
676.869	518.4
677.292	521.2
677.693	505.6
678.115	507.6
678.516	516.8
678.939	522.2
679.34	520.4
679.762	530.4
680.164	516.6
680.586	505.8
680.988	511
681.411	532.2
681.812	506.6
682.236	503.6
682.637	507.8
683.061	507.8
683.462	509.8
683.864	508.4
684.288	513.2
684.69	510.6
685.114	519.6
685.516	522.8
685.94	502.2
686.342	522.8
686.766	505.8
687.168	507
687.571	522.8
687.995	513
688.398	505.2
688.822	504.4
689.225	517.6
689.628	522.8
690.052	506.8
690.456	519
690.88	511.6
691.284	494.8
691.687	512.6
692.112	504
692.515	496
692.919	504.2
693.344	503.6
693.747	510
694.173	507.6
694.577	513
694.98	509
695.406	511.8
695.81	502.4
696.214	507.6
696.64	509.2
697.044	517.2
697.448	515
697.874	503.4
698.279	509.6
698.684	502
699.11	503.2
699.514	502.4
699.919	503
700.324	500.2
700.75	508.4
701.156	501.8
701.561	517.6
701.987	507.2
702.393	512
702.798	521.4
703.203	507.8
703.63	499.4
704.036	503.8
704.442	508.2
704.847	501
705.274	507
705.68	502
706.086	507.8
706.492	498.4
706.92	494.4
707.326	510.6
707.732	509.6
708.139	507.8
708.545	509.4
708.973	504.2
709.38	499.8
709.786	499
710.193	514.2
710.6	503.6
711.028	499.6
711.435	502.6
711.842	502.6
712.249	506
712.656	504
713.064	515.2
713.492	492.4
713.9	493.4
714.307	515.2
714.715	510.6
715.123	508.6
715.53	507.4
715.938	518.8
716.367	508.8
716.775	506
717.184	501.6
717.592	501.4
718	511.4
718.408	531.4
718.816	543.6
719.225	512.4
719.633	507.4
720.042	502.6
720.472	501.4
720.881	516.6
721.29	506
721.699	500.8
722.108	509.2
722.517	499
722.926	498.4
723.335	509.2
723.744	507.4
724.154	506
724.563	502
724.973	503.2
725.382	504.4
725.792	499.4
726.202	498.2
726.612	514
727.022	499.2
727.432	500.8
779.813	502
780.223	542.4
780.634	502.8
781.044	496.2
781.454	511.8
781.865	520.2
782.276	498.6
782.686	521.6
783.097	499.8
783.508	503.4
783.919	501.2
784.33	507.2
784.741	517
785.152	495.8
785.563	493.4
785.974	494.8
786.386	519.2
786.776	505.4
787.188	507
787.599	502
788.011	511.2
788.423	510
788.835	500.8
789.247	500
789.659	498.2
790.071	499
790.483	542
790.874	500
791.286	513.2
791.699	501
792.111	499.6
792.524	504
792.937	506.6
793.349	490.6
793.741	500.2
794.154	497.6
794.567	516
794.98	501.2
795.393	492.8
795.785	513
796.198	494.2
796.612	504.2
797.026	494.4
797.439	491.6
797.831	492.4
798.245	492.4
798.659	499.8
799.073	501.2
799.487	497.6
799.88	497.2
800.294	502.6
800.708	502.4
801.123	500.6
801.516	518.2
801.93	494.4
802.345	488.6
802.76	500.8
803.153	510.6
803.568	507.6
803.983	509.8
804.377	498.8
804.792	493.4
805.207	488
805.601	501.6
806.016	537.2
806.432	494.6
806.826	523.6
807.242	511.2
807.658	509.6
808.052	507.4
808.468	507.2
808.884	492.4
809.279	512.2
809.695	514.6
810.111	516.2
810.506	507.2
810.922	519.8
811.339	496.8
811.734	508.2
812.151	497.4
812.546	502.2
812.963	497.4
813.38	504.8
813.776	504.8
814.193	522.8
814.589	500
815.006	503.4
815.402	503.2
815.82	499
816.237	503.8
816.633	507.2
817.051	495.8
817.448	509.4
817.866	497.6
818.262	516.2
818.68	490.2
819.077	498.4
819.495	505.4
819.892	536
820.311	497.4
820.708	502.2
821.127	499.4
821.524	508.6
821.943	499.8
822.34	516.2
822.759	498.2
823.157	501.8
823.576	514
823.974	507.6
824.393	591.6
824.791	507.2
825.189	498.2
825.609	503.8
826.007	504.6
826.427	487.4
826.826	496.6
827.246	507.8
827.644	492.2
828.043	506
828.463	497.8
828.862	506
829.261	501.4
829.682	490
830.081	508
830.502	497
830.901	500.4
831.301	489.4
831.722	489.4
832.121	505
832.521	498.6
832.943	498.8
833.342	499.2
833.742	492
834.164	495.4
834.564	494.2
834.965	506.8
835.386	498.4
835.787	500.6
836.188	498.4
836.588	497.6
837.01	497.8
837.411	492.4
837.812	498
838.213	503.8
838.636	494.2
839.037	555.8
839.438	504.6
839.84	502.2
840.263	510.6
840.664	496.2
841.066	500.4
841.468	505.6
841.891	497.8
842.293	510.8
842.695	505.6
843.098	501.2
843.5	500.6
843.902	499.6
844.326	513.8
844.729	503.4
845.131	511.8
845.534	494.6
845.937	516.4
846.34	510.4
846.764	496.2
847.167	502.6
847.571	496.2
847.974	502
848.377	497
848.781	528
849.184	506
849.588	486
849.992	496.2
850.396	502
850.821	509.8
851.225	506.2
851.63	496.4
852.034	509.6
852.438	495.8
852.843	560
853.247	493.4
853.652	495.2
854.057	516.4
854.462	503
854.867	505.2
855.272	521.2
855.677	501.2
856.082	501.4
856.487	489.4
856.893	500.4
857.298	507.2
857.704	496.2
858.11	510.2
858.516	501.2
858.922	501
859.328	509
859.734	496.8
860.14	509
860.525	501.6
860.931	498.8
861.338	499
861.745	508.4
862.151	499.2
862.558	497.6
862.965	495.4
863.372	502.4
863.779	498.8
864.186	516.4
864.572	492.4
864.98	511
865.387	527.8
865.795	501.6
866.203	504.6
866.61	487.6
867.018	510
867.405	504.4
867.813	489.6
868.221	489.4
868.63	495.6
869.038	504.4
869.425	520.4
869.834	507.2
870.243	496.2
870.652	486.8
871.039	502.4
871.448	502.2
871.857	499
872.266	498.6
872.654	493.8
873.064	505.4
873.473	511.2
873.883	496.8
874.271	487.8
874.681	506.4
875.091	488
875.48	499.8
875.89	511.8
876.3	492.4
876.689	491.8
877.1	496.6
877.51	490.8
877.9	517.8
878.31	490.6
878.721	529
879.111	503
879.522	494.4
879.933	490
880.323	487.6
880.734	497.8
881.125	498.8
881.536	499.4
881.948	491.8
882.338	491.2
882.75	512.4
883.141	495.2
883.553	497.2
883.944	526.2
884.356	508.8
884.769	497.6
885.16	502.6
885.573	499.2
885.964	492.6
886.377	497
886.768	493.2
887.181	505.6
887.573	493.8
887.987	502.2
888.378	497.8
888.792	505.2
889.184	533.2
889.598	490.8
889.99	503
890.383	498
890.797	491.8
891.19	501.8
891.604	496.8
891.997	486.2
892.411	486.6
892.805	485.8
893.198	482.2
893.613	482
894.006	486
894.421	485
894.815	495.4
895.209	485.8
895.624	531.8
896.018	507.2
896.412	492.4
896.828	491.4
897.222	499.4
897.617	495.8
898.033	517.6
898.427	503.4
898.822	498.8
899.239	491.6
899.634	490
900.029	512.6
900.424	492
900.841	493
901.236	501.6
901.632	502
902.027	547.2
902.445	514
902.841	503.4
903.237	495.8
903.633	504.8
904.05	499.8
904.447	501
904.843	506.8
905.24	495.2
905.636	493.8
906.033	497.8
906.451	506.6
906.848	498
907.246	494.6
907.643	498.2
908.04	507.2
908.438	504.8
908.835	500.4
909.254	493.6
909.652	503.8
910.05	495.2
910.448	494.6
910.846	504
911.244	492
911.643	498.6
912.041	501.4
912.44	509
912.839	498.4
913.237	488.8
913.636	489.8
914.035	501.2
914.434	485.2
914.834	513.6
915.233	503.6
915.633	494
916.032	487.2
916.432	487.8
916.832	508.8
917.232	496.6
917.632	484.2
918.032	487
918.432	496.4
918.833	487
919.233	505
919.634	491.2
920.035	497.4
920.436	489.6
920.837	495
921.238	494
921.639	491.8
922.019	495.8
922.42	503.8
922.822	500.8
923.224	493
923.625	494.6
924.027	499.6
924.429	513.8
924.81	498.2
925.212	507
925.615	494.6
926.017	490.4
926.42	496.2
926.801	498
927.204	493.2
927.607	502
928.01	511.8
928.413	488.8
928.795	488.6
929.199	488.2
929.602	490.2
930.006	492.8
930.388	488.4
930.792	502
931.196	491.6
931.579	520.6
931.983	489
932.388	533
932.771	494
933.176	496.6
933.58	499.2
933.964	504.8
934.369	485.8
934.774	499.8
935.158	492
935.563	503.2
935.947	498
936.353	499.2
936.759	491.6
937.143	496.2
937.549	489
937.934	512.4
938.34	501
938.746	491.2
939.131	498.2
939.538	498.6
939.923	499
940.33	490.2
940.716	495.4
941.123	491.2
941.508	501.4
941.916	503.4
942.302	489.8
942.709	488.2
943.096	493.2
943.503	497.4
943.89	496.6
944.298	490.4
944.685	514.8
945.072	493.6
945.48	512.2
945.867	487.4
946.276	494.4
946.663	512.8
947.051	507.2
947.46	505.6
947.848	497.4
948.257	489.2
948.645	492.2
949.033	501.2
949.443	482.8
949.831	528.4
950.22	490.6
950.63	500.6
951.018	510.2
951.407	494
951.796	490.6
952.207	508.2
952.596	499.2
952.985	491
953.375	531.4
953.786	489
954.176	494.2
954.566	509.6
954.956	490.4
955.367	501
955.758	513.8
956.148	493.2
956.539	502
956.929	488.8
957.341	490.6
957.732	493.6
958.123	503.4
958.515	491.2
958.906	492
959.297	490.4
959.689	496.2
960.102	486.2
960.494	503
960.886	492.4
961.278	488
961.67	514.2
962.062	528.4
962.455	498.8
962.847	490.4
963.24	487.2
963.633	492.4
964.026	477.2
964.419	494.8
964.812	491
965.206	491.4
965.599	501.8
965.993	493.4
966.386	493
966.78	500.8
967.174	498.6
967.569	499.8
967.963	485.6
968.357	483.8
968.752	487.6
969.146	489.6
969.541	491.8
969.936	485
970.331	495.4
970.705	500
971.1	495.6
971.496	502.8
971.892	489.8
972.287	488.8
972.683	498.4
973.079	490
973.454	503.6
973.85	495.2
974.247	496.4
974.643	517.2
975.04	494.2
975.415	488.2
975.812	485.8
976.209	500.4
976.607	487.2
976.982	506.2
977.38	515.6
977.778	495.4
978.175	493
978.552	492
978.95	487.4
979.348	497.2
979.725	529
980.123	496
980.522	490.6
980.899	500.2
981.298	496.8
981.697	489.8
982.075	488.2
982.474	496.4
982.852	491.8
983.251	497.8
983.651	492
984.029	496.4
984.429	489
984.808	488.4
985.208	490
985.609	481.6
985.987	480
986.388	484.4
986.768	488.8
987.168	481.2
987.548	496.2
987.949	503.4
988.329	496.6
988.731	477.6
989.111	488.4
989.491	494.8
989.893	483.6
990.273	498
990.676	482.6
991.057	490.2
991.459	487.4
991.84	490.6
992.221	491
992.624	506.6
993.006	495.2
993.388	497.8
993.791	490
994.173	495
994.576	521.6
994.959	483.8
995.341	485.4
995.724	489.8
996.128	488
996.511	491.2
996.894	493
997.298	495.4
997.681	500.8
998.065	494.2
998.448	490
998.854	497
999.237	486
999.621	499
1000.01	506.6
1000.39	496.4
1000.8	492.6
1001.18	501.4
1001.56	500.6
1001.95	494
1002.33	498.2
1002.72	489.8
1003.13	492.2
1003.51	488.6
1003.9	493.6
1004.28	501
1004.67	496.8
1005.06	497.6
1005.44	520.4
1005.83	490.8
1006.21	490.8
1006.6	486.8
1006.99	493
1007.37	499
1007.76	488.4
1060.12	486.6
1060.51	490.2
1060.89	501.6
1061.28	503.2
1061.67	500
1062.06	485.4
1062.45	491.8
1062.83	487
1063.22	495
1063.61	523
1064	494.2
1064.39	496.4
1064.78	486.6
1065.14	506
1065.53	500.8
1065.92	499
1066.31	486.8
1066.7	499.4
1067.09	503.6
1067.46	494
1067.85	493.4
1068.24	483
1068.63	503.2
1069.02	482.8
1069.39	495
1069.78	484.4
1070.17	488.2
1070.57	479.6
1070.93	490.8
1071.33	478.2
1071.72	496.6
1072.11	493
1072.48	480.6
1072.87	490.2
1073.26	482.8
1073.64	488
1074.03	477.8
1074.4	490
1074.79	496.8
1075.19	491.6
1075.56	489
1075.95	496.8
1076.34	486.8
1076.72	492.2
1077.11	498.2
1077.48	500.8
1077.88	495.2
1078.25	491.2
1078.64	504.2
1079.02	500.6
1079.41	502.4
1079.78	495.4
1080.18	494.4
1080.55	552
1080.95	487
1081.32	484.2
1081.72	499.4
1082.09	493.6
1082.49	483
1082.86	490.8
1083.24	485.2
1083.63	481.6
1084.01	495
1084.38	497.2
1084.78	485
1085.16	496.8
1085.55	502.2
1085.93	499.8
1086.31	486.2
1086.7	518.8
1087.08	488.4
1087.46	484.8
1087.83	486.4
1088.23	494.8
1088.61	484
1088.99	489.2
1089.36	491.6
1089.76	485
1090.14	489.6
1090.52	485.6
1090.9	489
1091.27	505
1091.67	513.6
1092.05	500.8
1092.43	480.6
1092.81	497
1093.19	494
1093.57	487
1093.95	490
1094.35	499.2
1094.73	496
1095.11	485.4
1095.49	487
1095.87	490.2
1096.25	505.4
1096.63	504
1097.01	488
1097.39	499
1097.77	489.4
1098.15	488.2
1098.53	483.4
1098.91	496.8
1099.29	491.6
1099.68	510
1100.06	504.8
1100.44	489.4
1100.82	496.8
1101.18	498.8
1101.56	490.4
1101.95	488.2
1102.33	478.8
1102.71	492.6
1103.1	483
1103.48	481.2
1103.86	489.4
1104.22	494.2
1104.61	496.4
1104.99	481.6
1105.38	480
1105.76	489.4
1106.12	491.8
1106.51	518.4
1106.89	496.8
1107.26	483.4
1107.64	490.6
1108.03	486.8
1108.41	489.8
1108.78	484.8
1109.16	492.6
1109.55	495.8
1109.91	481
1110.3	479.6
1110.69	501.4
1111.05	493.4
1111.44	486.4
1111.8	495.4
1112.19	497.2
1112.58	493.2
1112.94	486.8
1113.33	498.4
1113.7	485.6
1114.09	496.8
1114.45	493.4
1114.84	485.4
1115.21	498
1115.6	491.2
1115.96	496.4
1116.35	497.4
1116.72	483.2
1117.11	497.4
1117.48	488.4
1117.85	492
1118.24	512.4
1118.6	483
1118.99	480.8
1119.36	506.2
1119.73	498.8
1120.12	494.2
1120.49	488.8
1120.86	503.6
1121.25	489.6
1121.62	483
1121.99	484.2
1122.38	506.6
1122.76	487.8
1123.13	493.8
1123.5	491.6
1123.89	497
1124.26	485
1124.63	491.4
1125	486.6
1125.4	484.6
1125.77	483.8
1126.14	472.6
1126.51	482.2
1126.88	488.8
1127.26	488.2
1127.63	475.4
1128.02	482
1128.4	485.4
1128.77	489.8
1129.14	481
1129.52	486.8
1129.89	483.2
1130.26	481.4
1130.64	475.4
1131.01	487.2
