#lambda/nm	C1
208.295	468.6
208.67	432
209.045	390.4
209.419	403.8
209.794	541
210.169	523.2
210.544	624.2
210.919	533.6
211.295	525.4
211.67	540
212.045	527.6
212.421	531.2
212.796	562
213.172	533.8
213.547	533.2
213.923	534.8
214.299	528.6
214.675	542.2
215.051	533.6
215.427	543
215.803	552.2
216.179	546.2
216.555	526.6
216.932	545.6
217.308	535.6
217.684	537.2
218.061	535.6
218.438	541
218.814	532.2
219.191	540.8
219.568	527
219.945	524.2
220.322	539.4
220.699	538.8
221.076	542
221.453	540.6
221.83	526.6
222.208	531.6
222.585	534.2
222.962	537.8
223.34	535.4
223.717	534.4
224.095	524.8
224.473	545.4
224.851	529.6
225.229	530.8
225.607	540.4
225.985	523.8
226.363	533.6
226.741	540.6
227.119	527.2
227.497	549
227.876	520.6
228.254	544.4
228.633	535.2
229.011	530.4
229.39	542.8
229.769	531.6
230.148	536.4
230.527	546.4
230.905	538.4
231.284	535.6
231.664	532.4
232.043	550
232.422	538.4
232.801	521.8
233.181	542.6
233.56	520.6
233.94	531.2
234.319	525.4
234.699	533.4
235.079	561.2
235.458	558.8
235.838	541
236.218	526.6
236.598	523
236.978	528.8
237.358	520.6
237.738	530
238.119	531
238.499	524
238.88	532
239.26	541.4
239.641	519.2
240.021	537.6
240.402	536.8
240.783	535.6
241.163	534.6
241.544	536.2
241.925	529.4
242.306	553.8
242.687	538.2
243.069	541.6
243.45	542
243.831	537.6
244.212	536.6
244.594	562.8
244.975	541.4
245.357	538
245.739	533.6
246.12	537.8
246.502	541.6
246.884	533.4
247.266	534.8
247.648	539.6
248.03	545.8
248.412	548
248.794	536.4
249.176	533.4
249.559	538.8
249.941	529.8
250.323	522.4
250.706	528.4
251.089	541.8
251.471	531.6
251.854	530.2
252.237	547.6
252.62	548.4
253.002	530.4
253.385	531.8
253.769	551.4
254.152	532.2
254.535	537.8
254.918	530.8
255.301	530
255.685	530.2
256.068	522.8
256.452	553.2
256.835	540.2
257.219	535.8
257.603	545.4
257.986	530.8
258.37	541
258.754	522.8
259.138	540.6
259.522	544.8
259.906	532.8
260.29	536.2
260.675	526.6
261.059	538.2
261.443	525.8
261.828	542
262.212	537.4
262.597	526.4
262.981	541
263.366	539.2
263.751	536
264.136	531.8
264.521	534.2
264.906	525.4
265.291	542
265.676	533.2
266.061	529.6
266.446	549.6
266.831	537
267.217	544.8
267.602	538.8
267.987	535.8
268.373	529.8
268.759	548.4
269.144	540
269.53	536.2
269.916	536
270.302	530.4
270.688	536
271.074	533.8
271.46	543.8
271.846	555.4
272.232	535.2
272.618	527.4
273.004	528.8
273.391	543.6
273.777	538
274.164	530.2
274.55	539.4
274.937	537
275.324	540.2
275.71	538.2
276.097	541
276.484	533.8
276.871	536.8
277.258	540.8
277.645	526.8
278.032	532.4
278.419	533.4
278.807	541.8
279.194	531.4
279.581	530.4
279.969	540
280.356	547
280.744	539.8
281.131	551.8
281.519	541
281.907	533.4
282.295	533
282.682	548.6
283.07	537
283.458	539.8
283.846	542.6
284.235	548
284.623	542.6
285.011	524
285.399	542.6
285.788	530.4
286.176	520.4
286.565	548.2
286.953	530.8
287.342	530.4
287.731	533.8
288.119	526.8
288.508	534.8
288.897	530.2
289.286	526.4
289.675	536.4
290.064	548
290.453	534
290.821	536.4
291.21	550.2
291.599	535.6
291.989	538.4
292.378	542.8
292.768	553.8
293.157	542.2
293.547	544.4
293.936	527.4
294.326	534.2
294.716	548.8
295.106	528.4
295.496	541.6
295.886	546.2
296.276	536
296.666	529
297.056	533
297.446	519
297.836	545.6
298.227	531.4
298.617	542
299.008	544.8
299.398	535.6
299.789	531.8
300.179	537.6
300.57	543.2
300.961	538
301.352	532.6
301.742	546.2
302.133	531.2
302.524	536.4
302.915	535.2
303.307	519.8
303.698	543.2
304.089	535.2
304.48	533.4
304.872	536.6
305.263	536.8
305.655	528.8
306.046	543
306.438	542.8
306.829	534
307.221	544.4
307.613	535.8
308.005	540.6
308.397	546.2
308.789	550.2
309.181	557.8
309.573	549.4
309.965	546.8
310.357	532
310.749	549.8
311.142	530.2
311.534	527.8
311.926	542.8
312.319	540
312.711	529.2
313.104	539.6
313.497	539.6
313.889	567
314.282	558.4
314.675	549.2
315.068	540.6
315.461	544.4
315.854	564.8
316.247	542
316.64	539.2
317.033	533
317.405	539.6
317.798	531.6
318.192	541.6
318.585	529.8
318.979	546.2
319.372	528.6
319.766	534.2
320.16	546.8
320.553	545.6
320.947	553.4
321.341	529.4
321.735	526.2
322.129	522.8
322.523	556
322.917	529.4
323.311	543.4
323.705	533.8
324.099	539.2
324.494	539.6
324.888	545.2
325.282	538.4
325.677	544.8
326.071	535.8
326.466	541.6
326.861	538
327.255	544.8
327.65	552
328.045	546.2
328.44	531.6
328.835	536.2
329.23	531.8
329.625	555.4
330.02	528.2
330.415	555.6
330.81	533.2
331.206	537.6
331.601	532.6
331.996	544.8
332.37	554.4
332.766	523.4
333.161	552.6
333.557	531.4
333.953	527.8
334.348	798.6
334.744	529
335.14	521.6
335.536	528.8
335.932	540
336.328	535
336.724	541.4
337.12	536
337.516	528.4
337.913	535.2
338.309	538
338.705	530.8
339.102	534.2
339.498	528.4
339.895	544.6
340.291	533.8
340.688	542.8
341.085	524.4
341.481	530.2
341.878	524.8
342.275	550.8
342.672	528
343.069	532.8
343.466	522.8
343.842	538.6
344.239	527.8
344.636	540.2
345.033	526
345.431	533.4
345.828	535.2
346.225	525.2
346.623	569.2
347.02	532.2
347.418	538.8
347.816	544.2
348.213	522.4
348.611	539.4
349.009	530.8
349.407	538.2
349.805	533.6
350.203	525.6
350.601	550
350.999	523.4
351.397	580
351.795	532.4
352.193	544.6
352.57	540
352.969	541.4
353.367	533.2
353.766	523.6
354.164	541
354.563	536.2
354.961	534.6
355.36	526.8
355.759	526.8
356.158	518
356.557	524
356.956	519.4
357.355	519.2
357.754	535
358.153	528.8
358.552	547.8
358.951	533.6
359.35	542
359.75	531
360.149	525.4
360.527	519
360.926	514.4
361.326	527
361.726	528
362.125	525
362.525	526.6
362.925	517.8
363.325	531.2
363.724	526
364.124	523.8
364.524	524
364.924	527
365.324	538.4
365.725	518.6
366.125	533.2
366.525	530.8
366.904	526.2
367.304	514.6
367.705	539.4
368.105	539.8
368.506	530.4
368.906	529
369.307	523
369.708	535.2
370.108	518
370.509	536.4
370.91	525.8
371.311	528.2
371.712	531
372.113	526.6
372.514	523.6
372.894	523.8
373.295	527.8
373.696	534.8
374.097	528.6
374.499	553.8
374.9	528.6
375.301	515
375.703	527.4
376.105	522.8
376.506	532.4
376.908	529
377.309	537.8
377.711	528
378.113	525.4
378.493	527.2
378.895	525.2
379.297	533.6
379.699	514.8
380.102	527
380.504	526.4
380.906	523.6
381.308	550.2
381.71	524.8
382.113	535.2
382.515	524.6
382.918	532.8
383.299	532.4
383.701	533.4
384.104	528.8
384.507	511.8
384.909	525.2
385.312	519
385.715	509.8
386.118	524.8
386.521	526
386.924	530.6
387.327	519
387.709	522.6
388.112	508.8
388.515	521.4
388.918	521.6
389.322	528.6
389.725	528.8
390.129	544.4
390.532	529.2
390.936	524
391.339	512.8
391.743	521.8
392.125	518.2
392.529	534.4
392.933	536.2
393.337	523.4
393.74	521.2
394.144	525
394.548	530
394.953	532.6
395.357	529.2
395.761	522
396.144	527.6
396.548	517
396.952	525.8
397.357	531.4
397.761	527.8
398.166	523.2
398.57	528
398.975	512.6
399.379	525.8
399.763	559.8
400.168	523.4
400.572	520.4
400.977	517.8
401.382	535.6
401.787	530.2
402.192	544.6
402.597	532
403.002	511.4
403.386	535.6
403.791	535.6
404.197	522.4
404.602	526
405.007	522.4
405.413	524.6
405.818	525
406.224	516
406.608	522.6
407.014	524
407.42	539.8
407.825	523
408.231	536.2
408.637	520.2
409.043	534.6
409.449	521
409.834	515.6
410.24	530.8
410.646	540.4
411.052	539.4
411.458	530.2
411.865	537.6
412.271	537
412.677	522
413.062	529
413.469	519.6
413.875	545.6
414.282	534.2
414.689	534.4
415.095	539.6
415.502	525.4
415.888	528
416.294	516.2
416.701	562
417.108	518.4
417.515	541.2
417.923	529.8
418.33	545.8
418.715	532
419.123	522.6
419.53	524
419.937	531
420.345	530.8
420.752	525
421.16	535.4
421.546	524
421.953	530.8
422.361	514.8
422.769	527.4
423.177	525.6
423.585	547.8
423.992	546.4
424.379	535
424.787	533.2
425.195	545.4
425.603	528.6
426.011	531.8
426.419	535
426.806	534.8
427.214	535.2
427.623	539.2
428.031	536
428.44	535.6
428.848	534.8
429.235	533
429.644	526
430.053	534
430.461	534
430.87	542.4
431.279	530
431.666	522
432.075	525
432.484	531.4
432.893	522.6
433.302	541.6
433.711	551.4
434.099	530
434.508	526.2
434.918	528.6
435.327	531.6
435.737	534
436.125	527.8
436.534	534
436.944	527
437.353	527.8
437.763	543.6
438.173	520.2
438.561	534.4
438.971	511.6
439.381	523.4
439.791	527
440.201	511.2
440.589	528.4
440.999	536.6
441.409	528
441.819	519
442.23	530.4
442.619	530.6
443.029	530
443.439	526.6
443.85	535.8
444.26	536.4
444.649	535.2
445.06	523.6
445.471	526.8
445.881	524.6
446.292	539.4
446.682	545.8
447.092	512.2
447.503	574.2
447.914	524.8
448.325	528.4
448.715	527.6
449.126	516.8
449.537	521.4
449.948	528
450.338	527.2
450.75	524.8
451.161	526.6
451.572	531.4
451.984	521.6
452.374	513.8
452.786	524.8
453.197	523.6
453.609	528.2
453.999	514.2
454.411	516.2
454.823	528.2
455.235	529.4
455.647	523.4
456.037	534.4
456.449	515.8
456.862	523.8
457.274	522
457.665	510.2
458.077	526.8
458.489	545
458.902	518.6
459.293	528
459.705	525.6
460.118	514.4
460.53	525
460.921	522.4
461.334	523.2
461.747	520
462.16	533
462.551	530.2
462.964	530.4
463.377	513.2
463.79	521
464.182	528.8
464.595	517
465.008	517.4
465.421	527.2
465.813	523.4
466.226	520.2
466.64	523.8
467.053	560.4
467.445	522.6
467.859	532
468.272	523.6
468.686	531.6
469.078	523.2
469.492	522.2
469.906	517.4
470.298	532.2
470.712	520.2
471.126	553.6
471.54	515
471.933	518.8
472.347	516
472.761	518.8
473.175	511.8
473.568	523.4
473.982	511.6
474.397	520.2
474.79	520.6
475.204	525.2
475.619	521.4
476.033	522
476.426	516
476.841	516.4
477.256	534.2
477.649	519.6
478.064	516.2
478.479	515.8
478.872	512
479.287	505.8
479.702	515.4
480.118	514.4
480.511	519.4
480.927	519.8
481.342	514.8
481.736	523.4
482.151	518.6
482.566	519.6
482.96	518.4
483.376	525.6
483.792	513.4
484.186	518
484.602	510.4
485.017	514.4
485.412	519.8
485.827	525.4
486.243	522.2
486.638	533.2
487.054	522.4
487.47	537.4
487.865	515.6
488.281	519.8
488.697	510.8
489.092	517.6
489.508	508.6
489.925	522.6
490.32	509.4
490.736	520.8
491.153	517.8
491.548	523.4
491.964	524.4
492.381	504.4
492.776	514.6
493.193	519.8
493.61	521.8
494.006	519.6
494.422	528.4
494.84	509.8
495.235	523.4
495.652	519.2
496.069	510.4
496.465	511.4
496.883	512.6
497.3	535.4
497.696	509
498.113	518.2
498.509	511
498.927	507.2
499.344	507.6
499.741	516.2
500.158	521.8
500.576	524
500.973	520.8
501.39	516.2
501.787	507
502.205	520.6
502.623	505.2
503.02	508.4
503.438	512.2
503.856	514.2
504.253	520.4
504.671	514
505.068	511
505.486	512
505.905	534
506.302	518
506.72	522.4
507.118	508
507.536	511.6
507.955	519.2
508.352	520.4
508.771	526.2
509.169	523
509.587	513.2
510.006	515
510.404	509.4
510.823	504.4
511.221	503.2
511.64	518.8
512.038	526.6
512.457	513.8
512.877	518.4
513.275	514.4
513.694	510.4
514.092	515.4
514.512	522.8
514.91	525.2
515.33	515.2
515.749	510.2
516.148	521
516.568	515.2
516.966	513.4
517.386	508.8
517.785	514.4
518.205	505.2
518.603	510.6
519.024	509
519.444	514.2
519.843	527
520.263	527.2
520.662	523.4
521.082	509.2
521.481	514.6
521.902	519.2
522.301	520.2
522.722	513
523.121	511.8
523.542	514.2
523.963	517.6
524.362	515.6
524.783	516
525.183	513.6
525.604	515.8
526.003	503.2
526.425	511.8
526.824	511
527.246	520.2
527.646	511.2
528.067	510.6
528.467	504.2
528.888	519.2
529.289	505
529.71	509
530.11	506.4
530.532	510.4
530.932	506.6
531.354	502.2
531.755	538.2
532.176	517.4
532.577	515
532.999	512.6
533.4	508
533.822	520.8
534.223	504.2
534.645	502.4
535.046	511.8
535.468	517.6
535.869	534.6
536.292	511.4
536.693	542.8
537.115	517.8
537.516	504
537.939	508.4
538.34	526.6
538.742	524.6
539.165	514.8
539.566	515.8
539.989	508.6
540.391	514.6
540.814	517.4
541.216	512.4
541.639	516.4
542.041	520.6
542.464	510.6
542.866	503.4
543.268	509.2
543.691	515.6
544.093	516.4
544.517	531
544.919	518.4
545.343	529.4
545.745	505
546.147	516.6
546.571	513
546.974	505.8
547.398	514.4
547.8	523.8
548.224	512
548.627	506
549.03	516.2
549.454	505
549.857	508.8
550.281	513.2
550.684	513.2
551.087	522
551.512	510.8
551.915	510.8
552.34	510.4
552.743	513.2
553.146	512.4
553.571	510.8
553.975	529.2
554.399	504.4
554.803	552.4
555.207	509
555.632	512.4
556.036	515
556.461	505.4
556.865	512.8
557.268	510.6
557.694	514
558.098	509.8
558.502	512
558.927	514.6
559.332	514.4
559.736	513
560.162	515.6
560.566	506
560.992	511.6
561.396	510.2
561.801	510
562.227	506.2
562.631	509.2
563.036	515.4
563.462	515.8
563.867	516.8
564.272	510.8
564.698	524
565.103	510.6
565.508	530.2
565.935	510.4
566.34	505.6
566.745	508.4
567.172	515.2
567.577	524.2
567.982	523
568.409	509.8
568.815	510.8
569.22	513
569.626	520
570.053	500.8
570.459	513.4
570.865	523
571.292	521.4
571.698	517.6
572.104	499.4
572.531	505.8
572.937	519.8
573.343	512.2
573.75	506
574.177	514.4
574.583	510.2
574.99	511.4
575.396	520.8
575.824	506.4
576.231	521.6
576.637	506.6
577.065	531.4
577.472	512.8
577.879	505.4
578.286	520.8
578.714	500
579.121	510.8
579.528	518.6
579.935	518.8
580.364	510.2
580.771	495.8
581.178	506
581.585	508.2
582.014	519.4
582.421	511.2
582.829	507.6
583.236	515.4
583.644	506.4
584.073	508.8
584.481	511.2
584.889	508
585.296	509.4
585.726	516
586.134	508.4
586.542	504.8
586.95	530.4
587.358	509
587.787	510.2
588.196	502.8
588.604	510.6
589.012	503.8
589.421	502.6
589.851	503.6
590.259	517
590.668	512.8
591.076	539.6
591.485	503.4
591.894	511.4
592.324	514.2
592.733	520.8
593.142	504.8
593.551	507.6
593.96	508.2
594.369	505
594.8	496.4
595.209	512.4
595.618	504.8
596.028	505.8
596.437	499.8
596.847	507.6
597.256	513
597.687	514.2
598.097	515.4
598.507	497.2
598.917	515.8
599.327	518
599.736	519
600.146	523.8
600.556	512.4
600.988	526.8
601.398	507
601.808	519
602.219	510.6
602.629	520.6
603.039	519.6
603.45	535.4
603.86	520
604.271	530.8
604.703	521
605.114	513.6
605.525	524
605.935	526.8
606.346	531.8
606.757	519.6
607.168	521.6
607.579	526.6
607.99	526.4
608.402	508.8
608.813	528.6
609.224	516.4
609.636	516.4
610.047	522.2
610.48	518.2
610.892	528.4
611.303	531.6
611.715	521.8
612.127	519.2
612.539	520.8
612.95	525.8
613.362	517.4
613.774	511
614.186	524.2
614.599	520.6
615.011	538.4
615.423	531
615.835	521
616.248	513.6
616.66	535.6
617.073	523.8
617.485	525.8
617.898	537.8
618.311	528
618.723	530.6
619.136	555.6
619.549	542.8
619.962	550.2
620.375	526.4
620.788	535
621.201	524.6
621.614	542.4
622.028	535.2
622.441	536
622.854	542.8
623.268	526.6
623.681	537.8
624.095	532.2
624.509	545.2
624.922	545.8
625.336	526
625.728	528.8
626.142	543.4
626.556	541.8
626.97	536
627.384	529.4
627.799	535
628.213	550.2
628.627	532
629.041	533.2
629.456	537.2
629.87	534.2
630.285	546.6
630.699	548.8
631.093	532.4
631.507	538
631.922	548
632.337	542.6
632.752	530.2
633.167	534
633.582	529
633.997	534.6
634.412	534.8
634.806	535.6
635.221	527.6
635.637	550.4
636.052	524
636.468	544.4
636.883	551.2
637.299	535.6
637.715	522
638.109	532.4
638.525	521.6
638.941	539.2
639.357	528.8
639.773	544.4
640.189	533
640.584	532.4
641	530.6
641.416	516
641.832	529.8
642.249	530.8
642.665	529.2
643.06	540.8
643.477	532.2
643.894	515.8
644.31	522.6
644.727	527.2
645.123	535.4
645.54	516.4
645.957	527.2
646.374	538.4
646.77	520
647.187	547.8
647.604	523
648.021	516
648.439	519.8
648.835	523.2
649.252	526.6
649.67	523.4
650.088	517.6
650.484	529
650.902	530.6
651.32	526.8
651.738	517.2
652.134	516.6
652.552	533.8
652.971	530.8
653.389	512.4
653.786	529.4
654.204	526.6
654.622	511.8
655.019	513.6
655.438	522.8
655.857	525.8
656.275	518.8
656.673	508
657.091	525.6
657.51	515.8
657.908	525.4
658.327	534.2
658.746	510
659.144	514.8
659.563	529.6
659.982	519.4
660.38	508.8
660.8	511.8
661.219	521.8
661.617	515.4
662.037	518.8
662.457	522.6
662.855	509.2
663.275	538
663.695	516.8
664.094	505.4
664.514	515
664.934	506.8
665.333	517
665.753	506.2
666.152	509.4
666.572	509.8
666.993	522.2
667.392	502.2
667.812	512
668.212	508.4
668.632	524.2
669.053	505.6
669.453	512.4
669.874	513
670.273	510.8
670.694	506.4
671.116	517.8
671.515	512.8
671.937	506.8
672.337	501.8
672.758	507.6
673.158	515.8
673.58	499.6
673.98	509.2
674.402	519.6
674.824	508.6
675.224	510
675.646	500.4
676.047	503.8
676.469	501.2
676.869	509.6
677.292	504.2
677.693	511.4
678.115	500.6
678.516	519.4
678.939	509.6
679.34	507
679.762	520.8
680.164	516.6
680.586	506.8
680.988	506.8
681.411	524.8
681.812	502
682.236	499
682.637	504.6
683.061	501.8
683.462	512.2
683.864	504.8
684.288	512.6
684.69	503.2
685.114	512
685.516	514
685.94	497.4
686.342	512
686.766	500.8
687.168	503.8
687.571	526.8
687.995	509
688.398	504.8
688.822	500.8
689.225	514.4
689.628	515.6
690.052	500.4
690.456	501.4
690.88	502.2
691.284	491.2
691.687	506
692.112	499.4
692.515	493.2
692.919	503
693.344	506.4
693.747	498.2
694.173	505.6
694.577	507.8
694.98	509
695.406	499.8
695.81	508.8
696.214	505
696.64	508.2
697.044	510.2
697.448	512.6
697.874	503.8
698.279	512.2
698.684	502
699.11	497.8
699.514	502.6
699.919	503
700.324	500.2
700.75	509
701.156	505.4
701.561	509.2
701.987	516.4
702.393	510.6
702.798	518.2
703.203	508
703.63	500.6
704.036	498.4
704.442	508.6
704.847	497
705.274	503.2
705.68	509.4
706.086	511
706.492	497.4
706.92	504.4
707.326	518.8
707.732	499.2
708.139	491.2
708.545	501
708.973	496.6
709.38	505.6
709.786	491.2
710.193	512.6
710.6	497.8
711.028	496.2
711.435	497.2
711.842	498
712.249	500.4
712.656	501.8
713.064	504.6
713.492	495.6
713.9	506
714.307	506.2
714.715	512.2
715.123	506.8
715.53	502.6
715.938	516.8
716.367	502.2
716.775	501
717.184	491.8
717.592	500.2
718	516.6
718.408	525
718.816	534.6
719.225	513.2
719.633	502.6
720.042	496.8
720.472	500
720.881	515.4
721.29	505.6
721.699	489.4
722.108	503
722.517	494
722.926	492.8
723.335	502.8
723.744	494
724.154	500.8
724.563	493.2
724.973	504
725.382	501.6
725.792	496.2
726.202	493.2
726.612	507.2
727.022	505.4
727.432	498.4
779.813	498.8
780.223	540.6
780.634	498
781.044	495
781.454	501.4
781.865	508.6
782.276	497.8
782.686	506.4
783.097	512.6
783.508	503.8
783.919	504.8
784.33	504
784.741	508
785.152	496.8
785.563	494.2
785.974	495
786.386	508.8
786.776	506.2
787.188	501.6
787.599	499.4
788.011	503
788.423	502.6
788.835	503.8
789.247	500.4
789.659	498.6
790.071	500.8
790.483	534.8
790.874	500.2
791.286	510.2
791.699	496.4
792.111	509.6
792.524	507.2
792.937	507
793.349	499.2
793.741	502.2
794.154	497
794.567	519.2
794.98	495.6
795.393	501.2
795.785	518.4
796.198	498.6
796.612	497.8
797.026	501.2
797.439	486
797.831	496.4
798.245	491
798.659	507
799.073	499.2
799.487	497.2
799.88	500.6
800.294	492
800.708	495.6
801.123	500.4
801.516	512.8
801.93	491
802.345	493.8
802.76	499.2
803.153	512.6
803.568	511.8
803.983	500.4
804.377	500
804.792	484.4
805.207	490
805.601	502.2
806.016	529.4
806.432	496
806.826	531.8
807.242	509.2
807.658	501.4
808.052	500.4
808.468	507.4
808.884	502
809.279	499.6
809.695	511.6
810.111	515.2
810.506	504.2
810.922	514.4
811.339	503.2
811.734	501.8
812.151	500.4
812.546	501.6
812.963	496
813.38	499.6
813.776	503.8
814.193	524.2
814.589	500.6
815.006	500.8
815.402	498
815.82	495
816.237	505.4
816.633	503
817.051	492
817.448	504.8
817.866	492.8
818.262	519.6
818.68	502.6
819.077	490.2
819.495	500.6
819.892	533.2
820.311	490.6
820.708	496.6
821.127	499.2
821.524	507.6
821.943	506
822.34	514.2
822.759	500.8
823.157	505.4
823.576	512
823.974	507.2
824.393	589.2
824.791	495
825.189	479.4
825.609	504.6
826.007	497.6
826.427	489
826.826	504.2
827.246	500.2
827.644	489.2
828.043	510.4
828.463	499
828.862	508.8
829.261	504.4
829.682	496.4
830.081	499.8
830.502	490.4
830.901	504
831.301	496.2
831.722	489.8
832.121	501.6
832.521	492.6
832.943	493.6
833.342	504.2
833.742	501.6
834.164	502.6
834.564	490.2
834.965	503.8
835.386	496.6
835.787	498
836.188	501.4
836.588	500.6
837.01	492.8
837.411	492.2
837.812	501.2
838.213	505.2
838.636	495.6
839.037	550.2
839.438	500.4
839.84	493.8
840.263	498.2
840.664	493.4
841.066	488.6
841.468	506.2
841.891	494.4
842.293	501
842.695	501.8
843.098	498.4
843.5	498.2
843.902	506.4
844.326	507.4
844.729	503.4
845.131	507.6
845.534	503.6
845.937	509
846.34	510.4
846.764	490.2
847.167	504.2
847.571	490.2
847.974	497.6
848.377	502.2
848.781	536.6
849.184	507.6
849.588	491.6
849.992	501.8
850.396	500.8
850.821	508
851.225	502
851.63	500
852.034	512.8
852.438	503.2
852.843	564.4
853.247	494.8
853.652	494.2
854.057	505.8
854.462	498
854.867	498.2
855.272	519
855.677	501.6
856.082	493
856.487	490.8
856.893	508.2
857.298	494.8
857.704	490.6
858.11	496.2
858.516	495.8
858.922	495.2
859.328	509.8
859.734	499.8
860.14	499
860.525	496.2
860.931	489.8
861.338	498.2
861.745	501.8
862.151	504.8
862.558	493.8
862.965	492.6
863.372	495
863.779	492
864.186	509.4
864.572	507.6
864.98	509
865.387	519.6
865.795	494.2
866.203	501
866.61	499.6
867.018	503
867.405	498.6
867.813	494.2
868.221	490.2
868.63	487.6
869.038	496
869.425	514.8
869.834	491.8
870.243	485.2
870.652	485.8
871.039	494.4
871.448	501.6
871.857	497.8
872.266	494
872.654	493
873.064	500.4
873.473	499.2
873.883	488
874.271	488.8
874.681	505.4
875.091	487.8
875.48	505.4
875.89	511
876.3	496.2
876.689	485.2
877.1	493.6
877.51	492.2
877.9	512.4
878.31	489.6
878.721	520.2
879.111	496.8
879.522	499.6
879.933	484.6
880.323	486.4
880.734	497.6
881.125	493
881.536	495.2
881.948	488.6
882.338	500
882.75	498.8
883.141	495.6
883.553	500.6
883.944	514.4
884.356	504.6
884.769	489.6
885.16	490
885.573	494.6
885.964	489.2
886.377	500.8
886.768	489.2
887.181	503
887.573	489
887.987	503.4
888.378	508
888.792	501.6
889.184	534.8
889.598	499.2
889.99	498.6
890.383	493
890.797	492.6
891.19	510.6
891.604	496
891.997	495.8
892.411	496.8
892.805	498.8
893.198	500
893.613	484.4
894.006	505.6
894.421	495.6
894.815	490.8
895.209	487
895.624	525.4
896.018	507.6
896.412	493.4
896.828	493.2
897.222	495.8
897.617	494.6
898.033	512
898.427	496.6
898.822	500.2
899.239	485.4
899.634	489.4
900.029	510
900.424	491.8
900.841	483.4
901.236	507
901.632	500
902.027	539.2
902.445	496
902.841	487.4
903.237	497.6
903.633	501.4
904.05	503.6
904.447	497.4
904.843	507.4
905.24	495.2
905.636	492.4
906.033	493.6
906.451	505
906.848	496.2
907.246	495
907.643	497.4
908.04	499.6
908.438	512
908.835	506.8
909.254	497
909.652	499.8
910.05	493
910.448	491.4
910.846	491.8
911.244	486.4
911.643	500.2
912.041	497
912.44	514.4
912.839	493.2
913.237	489
913.636	492.4
914.035	506
914.434	490.6
914.834	497
915.233	503
915.633	495
916.032	485
916.432	484.8
916.832	508
917.232	489
917.632	483.2
918.032	495.6
918.432	498
918.833	497
919.233	490.6
919.634	482.6
920.035	502
920.436	489.4
920.837	503
921.238	491.6
921.639	495.8
922.019	501.2
922.42	493.8
922.822	494
923.224	497
923.625	503.8
924.027	497.8
924.429	508.6
924.81	501.4
925.212	507
925.615	492
926.017	493.2
926.42	502.2
926.801	501.6
927.204	494.6
927.607	503
928.01	501
928.413	491.6
928.795	487.4
929.199	492.4
929.602	497.8
930.006	489.6
930.388	485
930.792	494
931.196	490.8
931.579	517
931.983	497.2
932.388	529.8
932.771	501
933.176	486.2
933.58	493
933.964	494.2
934.369	489
934.774	499.6
935.158	490.8
935.563	497
935.947	502
936.353	502.8
936.759	481
937.143	497.6
937.549	486.6
937.934	503.6
938.34	510
938.746	490.2
939.131	492.8
939.538	490.8
939.923	501.4
940.33	484.6
940.716	497
941.123	495.6
941.508	502.8
941.916	503.2
942.302	501.4
942.709	486.6
943.096	489.6
943.503	491.6
943.89	491
944.298	487.8
944.685	511.6
945.072	499.4
945.48	507.2
945.867	484
946.276	489.2
946.663	515
947.051	511.6
947.46	501.4
947.848	494.8
948.257	493.6
948.645	499.2
949.033	500.2
949.443	493.4
949.831	523.2
950.22	495.6
950.63	497.6
951.018	516
951.407	496
951.796	483.4
952.207	495.2
952.596	496.4
952.985	487
953.375	523.4
953.786	488.8
954.176	489.8
954.566	498.6
954.956	480.4
955.367	497.6
955.758	507.6
956.148	481.4
956.539	500.4
956.929	481.4
957.341	487.4
957.732	492.6
958.123	489.6
958.515	486.2
958.906	500.8
959.297	494.6
959.689	488.2
960.102	484
960.494	493
960.886	487.2
961.278	486
961.67	509.2
962.062	513.6
962.455	491
962.847	481
963.24	486.6
963.633	485.4
964.026	480
964.419	485.4
964.812	492.4
965.206	483.8
965.599	487
965.993	489.2
966.386	490.2
966.78	494.6
967.174	499.4
967.569	483.6
967.963	486.6
968.357	487.6
968.752	484.6
969.146	485.2
969.541	485.2
969.936	490.6
970.331	496.2
970.705	493
971.1	491.4
971.496	492.2
971.892	489
972.287	492.4
972.683	491.2
973.079	491.4
973.454	506.6
973.85	493
974.247	504.2
974.643	513
975.04	496.2
975.415	496
975.812	493
976.209	492.4
976.607	486.4
976.982	501.4
977.38	503.4
977.778	483.4
978.175	500.6
978.552	502.4
978.95	498.2
979.348	495
979.725	532.2
980.123	499
980.522	492
980.899	488.4
981.298	488.8
981.697	502.6
982.075	486
982.474	482.8
982.852	496.6
983.251	488.4
983.651	493.2
984.029	494.2
984.429	490
984.808	486.6
985.208	491
985.609	484.4
985.987	489.4
986.388	487.4
986.768	500.2
987.168	488.8
987.548	497
987.949	494.6
988.329	492.6
988.731	485
989.111	482.8
989.491	485.8
989.893	497.6
990.273	495.6
990.676	486.6
991.057	487.8
991.459	491.4
991.84	490
992.221	485
992.624	505.6
993.006	495.4
993.388	490.6
993.791	500.2
994.173	489
994.576	518.6
994.959	496.2
995.341	495.6
995.724	492.6
996.128	492.6
996.511	493
996.894	488.2
997.298	489
997.681	498.8
998.065	496
998.448	495.4
998.854	500.8
999.237	485
999.621	495.6
1000.01	498.8
1000.39	489.8
1000.8	488
1001.18	491.4
1001.56	490.8
1001.95	496.2
1002.33	494.8
1002.72	489.2
1003.13	494.2
1003.51	500
1003.9	491.2
1004.28	500.8
1004.67	482.8
1005.06	491.6
1005.44	517.6
1005.83	485
1006.21	496.6
1006.6	485.2
1006.99	501.8
1007.37	496.2
1007.76	489.8
1060.12	491
1060.51	481.6
1060.89	494.6
1061.28	499.8
1061.67	497
1062.06	498.6
1062.45	493.4
1062.83	491.2
1063.22	492.2
1063.61	526.6
1064	492.8
1064.39	490
1064.78	483.6
1065.14	500.8
1065.53	493
1065.92	491.6
1066.31	490.2
1066.7	501.8
1067.09	504.2
1067.46	510.6
1067.85	490
1068.24	490
1068.63	496
1069.02	483.8
1069.39	499.2
1069.78	489.8
1070.17	485.2
1070.57	485.2
1070.93	499.4
1071.33	485.8
1071.72	493.2
1072.11	492.6
1072.48	480.4
1072.87	488.2
1073.26	491
1073.64	483.2
1074.03	482.6
1074.4	489.2
1074.79	491.8
1075.19	491.8
1075.56	494.2
1075.95	489.8
1076.34	495.6
1076.72	482.6
1077.11	491.6
1077.48	496.4
1077.88	498
1078.25	488.8
1078.64	502.2
1079.02	496.2
1079.41	491.4
1079.78	493.6
1080.18	488.2
1080.55	541.4
1080.95	489.6
1081.32	492.8
1081.72	487.4
1082.09	486.8
1082.49	489
1082.86	494.2
1083.24	477.6
1083.63	483.6
1084.01	488.6
1084.38	494.4
1084.78	494.8
1085.16	497.2
1085.55	496.8
1085.93	501.2
1086.31	486
1086.7	515.2
1087.08	497.8
1087.46	495.8
1087.83	485.6
1088.23	502.6
1088.61	494.8
1088.99	492
1089.36	487.2
1089.76	488.4
1090.14	487.6
1090.52	486.4
1090.9	484.6
1091.27	501.6
1091.67	513.2
1092.05	493
1092.43	485.4
1092.81	491.6
1093.19	490.8
1093.57	480.2
1093.95	484.8
1094.35	496.6
1094.73	501.2
1095.11	482
1095.49	478.6
1095.87	487.6
1096.25	495.8
1096.63	492.6
1097.01	489
1097.39	489
1097.77	490.2
1098.15	490.8
1098.53	485.4
1098.91	486.2
1099.29	487
1099.68	503
1100.06	492.8
1100.44	490.2
1100.82	495.8
1101.18	488.4
1101.56	483
1101.95	486.2
1102.33	485.4
1102.71	483.8
1103.1	482.2
1103.48	476
1103.86	485
1104.22	487
1104.61	484.6
1104.99	488.2
1105.38	475.6
1105.76	479.8
1106.12	486.4
1106.51	507.6
1106.89	489.4
1107.26	485.6
1107.64	489.4
1108.03	487
1108.41	484.2
1108.78	487.6
1109.16	482.8
1109.55	490.4
1109.91	479
1110.3	478
1110.69	499.8
1111.05	481.8
1111.44	484.8
1111.8	489.8
1112.19	490.4
1112.58	497.6
1112.94	494.4
1113.33	483.2
1113.7	490.8
1114.09	477.2
1114.45	484
1114.84	487
1115.21	494.8
1115.6	486.8
1115.96	481.4
1116.35	489.6
1116.72	489.4
1117.11	503.8
1117.48	488.6
1117.85	492.8
1118.24	498
1118.6	483.2
1118.99	486.2
1119.36	495.8
1119.73	489.6
1120.12	485.6
1120.49	478.8
1120.86	495.4
1121.25	479.4
1121.62	474
1121.99	481.8
1122.38	497.2
1122.76	485.8
1123.13	489.6
1123.5	495.2
1123.89	487
1124.26	483.8
1124.63	492.2
1125	486.4
1125.4	481.6
1125.77	475
1126.14	477.8
1126.51	485.4
1126.88	494.8
1127.26	486
1127.63	482.2
1128.02	486.4
1128.4	479.6
1128.77	484.4
1129.14	488
1129.52	486.4
1129.89	493.6
1130.26	484.4
1130.64	480.4
1131.01	481.4
